Date:	2023-09-18		
Time:	20:55		
Sample name:	Pellets		
Position:	979.600011	mm	
Sample surface:	6.005463	cm	
Tube anode:	Mo		
Tube voltage:	30	kV	
Tube current:	50	mA	
Comments	not in position		
Gain	5.810000		
peaking_time	0.300000	m-sec	
trigger_threshold	30.000000	V	
mca_bin_width	2.000000	no:	
number_mca_channels	2048.000000	no:	
gap_time	0.100000	m-sec	
trigger_peaking_time	0.050000	m-sec	
livetime	17.165488	seconds	
runtime	20.000196	seconds	
input_count_rate	119394.860241	cps	
output_count_rate	102472.548331	cps	
triggers	2300324.000000	seconds	
events_in_run	2039258.000000	seconds	
channel	content		
 1.00	 0.00
 2.00	 0.00
 3.00	 0.00
 4.00	 0.00
 5.00	 0.00
 6.00	 0.00
 7.00	 0.00
 8.00	 0.00
 9.00	 0.00
10.00	 0.00
11.00	 0.00
12.00	 0.00
13.00	 0.00
14.00	 0.00
15.00	 0.00
16.00	 0.00
17.00	 0.00
18.00	 0.00
19.00	 0.00
20.00	 0.00
21.00	 0.00
22.00	 0.00
23.00	 0.00
24.00	 0.00
25.00	 0.00
26.00	 0.00
27.00	 0.00
28.00	 0.00
29.00	 0.00
30.00	 0.00
31.00	 0.00
32.00	 3.00
33.00	 2.00
34.00	 1.00
35.00	 4.00
36.00	 6.00
37.00	15.00
38.00	13.00
39.00	29.00
40.00	50.00
41.00	45.00
42.00	62.00
43.00	74.00
44.00	109.00
45.00	121.00
46.00	161.00
47.00	155.00
48.00	192.00
49.00	190.00
50.00	235.00
51.00	266.00
52.00	248.00
53.00	270.00
54.00	268.00
55.00	316.00
56.00	322.00
57.00	324.00
58.00	312.00
59.00	366.00
60.00	343.00
61.00	369.00
62.00	363.00
63.00	384.00
64.00	395.00
65.00	386.00
66.00	357.00
67.00	355.00
68.00	362.00
69.00	387.00
70.00	375.00
71.00	406.00
72.00	382.00
73.00	343.00
74.00	418.00
75.00	383.00
76.00	396.00
77.00	387.00
78.00	358.00
79.00	389.00
80.00	371.00
81.00	365.00
82.00	384.00
83.00	362.00
84.00	372.00
85.00	357.00
86.00	353.00
87.00	352.00
88.00	358.00
89.00	354.00
90.00	373.00
91.00	363.00
92.00	310.00
93.00	316.00
94.00	356.00
95.00	337.00
96.00	290.00
97.00	316.00
98.00	317.00
99.00	295.00
100.00	318.00
101.00	303.00
102.00	294.00
103.00	280.00
104.00	299.00
105.00	305.00
106.00	317.00
107.00	300.00
108.00	280.00
109.00	261.00
110.00	255.00
111.00	273.00
112.00	290.00
113.00	279.00
114.00	303.00
115.00	246.00
116.00	258.00
117.00	271.00
118.00	264.00
119.00	251.00
120.00	272.00
121.00	256.00
122.00	262.00
123.00	241.00
124.00	243.00
125.00	223.00
126.00	239.00
127.00	233.00
128.00	239.00
129.00	208.00
130.00	223.00
131.00	214.00
132.00	234.00
133.00	197.00
134.00	212.00
135.00	237.00
136.00	219.00
137.00	251.00
138.00	340.00
139.00	391.00
140.00	531.00
141.00	708.00
142.00	817.00
143.00	911.00
144.00	974.00
145.00	1019.00
146.00	997.00
147.00	939.00
148.00	776.00
149.00	709.00
150.00	609.00
151.00	622.00
152.00	557.00
153.00	508.00
154.00	472.00
155.00	460.00
156.00	405.00
157.00	387.00
158.00	458.00
159.00	568.00
160.00	909.00
161.00	1574.00
162.00	2536.00
163.00	4007.00
164.00	6044.00
165.00	8511.00
166.00	10909.00
167.00	13369.00
168.00	14949.00
169.00	15359.00
170.00	14887.00
171.00	13193.00
172.00	11154.00
173.00	8746.00
174.00	6414.00
175.00	4529.00
176.00	3247.00
177.00	2280.00
178.00	1653.00
179.00	1211.00
180.00	984.00
181.00	739.00
182.00	636.00
183.00	554.00
184.00	503.00
185.00	393.00
186.00	436.00
187.00	367.00
188.00	420.00
189.00	418.00
190.00	437.00
191.00	405.00
192.00	450.00
193.00	379.00
194.00	371.00
195.00	345.00
196.00	336.00
197.00	318.00
198.00	285.00
199.00	266.00
200.00	217.00
201.00	219.00
202.00	196.00
203.00	209.00
204.00	190.00
205.00	181.00
206.00	171.00
207.00	155.00
208.00	184.00
209.00	159.00
210.00	163.00
211.00	179.00
212.00	162.00
213.00	196.00
214.00	191.00
215.00	193.00
216.00	206.00
217.00	239.00
218.00	270.00
219.00	288.00
220.00	322.00
221.00	354.00
222.00	359.00
223.00	364.00
224.00	430.00
225.00	395.00
226.00	327.00
227.00	331.00
228.00	283.00
229.00	243.00
230.00	253.00
231.00	225.00
232.00	197.00
233.00	181.00
234.00	175.00
235.00	173.00
236.00	186.00
237.00	178.00
238.00	198.00
239.00	163.00
240.00	169.00
241.00	165.00
242.00	149.00
243.00	182.00
244.00	165.00
245.00	177.00
246.00	174.00
247.00	143.00
248.00	164.00
249.00	161.00
250.00	212.00
251.00	182.00
252.00	212.00
253.00	205.00
254.00	193.00
255.00	201.00
256.00	177.00
257.00	209.00
258.00	189.00
259.00	212.00
260.00	204.00
261.00	210.00
262.00	223.00
263.00	247.00
264.00	240.00
265.00	225.00
266.00	239.00
267.00	293.00
268.00	245.00
269.00	280.00
270.00	276.00
271.00	234.00
272.00	240.00
273.00	218.00
274.00	242.00
275.00	231.00
276.00	243.00
277.00	312.00
278.00	424.00
279.00	538.00
280.00	761.00
281.00	918.00
282.00	1180.00
283.00	1465.00
284.00	1780.00
285.00	1915.00
286.00	2068.00
287.00	2145.00
288.00	1985.00
289.00	1718.00
290.00	1637.00
291.00	1326.00
292.00	1073.00
293.00	827.00
294.00	584.00
295.00	464.00
296.00	394.00
297.00	265.00
298.00	257.00
299.00	235.00
300.00	230.00
301.00	250.00
302.00	242.00
303.00	261.00
304.00	371.00
305.00	371.00
306.00	445.00
307.00	552.00
308.00	645.00
309.00	941.00
310.00	1227.00
311.00	1778.00
312.00	2563.00
313.00	3661.00
314.00	5204.00
315.00	7194.00
316.00	9299.00
317.00	11743.00
318.00	14102.00
319.00	16340.00
320.00	17582.00
321.00	18040.00
322.00	17623.00
323.00	16470.00
324.00	14614.00
325.00	12180.00
326.00	9899.00
327.00	7541.00
328.00	5506.00
329.00	3924.00
330.00	2585.00
331.00	1599.00
332.00	1105.00
333.00	746.00
334.00	534.00
335.00	446.00
336.00	426.00
337.00	467.00
338.00	540.00
339.00	644.00
340.00	903.00
341.00	1185.00
342.00	1446.00
343.00	1834.00
344.00	2284.00
345.00	2829.00
346.00	3379.00
347.00	4073.00
348.00	4805.00
349.00	5880.00
350.00	7214.00
351.00	8842.00
352.00	10625.00
353.00	12578.00
354.00	14633.00
355.00	16509.00
356.00	17949.00
357.00	18641.00
358.00	18348.00
359.00	17382.00
360.00	15873.00
361.00	13552.00
362.00	11294.00
363.00	9067.00
364.00	6726.00
365.00	5005.00
366.00	3482.00
367.00	2321.00
368.00	1567.00
369.00	961.00
370.00	616.00
371.00	466.00
372.00	380.00
373.00	322.00
374.00	350.00
375.00	344.00
376.00	384.00
377.00	499.00
378.00	541.00
379.00	628.00
380.00	878.00
381.00	1084.00
382.00	1408.00
383.00	1671.00
384.00	2016.00
385.00	2362.00
386.00	2550.00
387.00	2874.00
388.00	2859.00
389.00	2972.00
390.00	2855.00
391.00	2655.00
392.00	2312.00
393.00	2039.00
394.00	1727.00
395.00	1348.00
396.00	1122.00
397.00	892.00
398.00	727.00
399.00	576.00
400.00	496.00
401.00	452.00
402.00	403.00
403.00	366.00
404.00	380.00
405.00	301.00
406.00	334.00
407.00	294.00
408.00	304.00
409.00	299.00
410.00	295.00
411.00	292.00
412.00	312.00
413.00	312.00
414.00	343.00
415.00	379.00
416.00	370.00
417.00	378.00
418.00	438.00
419.00	476.00
420.00	541.00
421.00	630.00
422.00	756.00
423.00	1027.00
424.00	1334.00
425.00	1801.00
426.00	2635.00
427.00	3436.00
428.00	4733.00
429.00	6155.00
430.00	7826.00
431.00	9608.00
432.00	11300.00
433.00	13359.00
434.00	14490.00
435.00	15462.00
436.00	15861.00
437.00	15615.00
438.00	15007.00
439.00	13788.00
440.00	12109.00
441.00	10438.00
442.00	8584.00
443.00	7056.00
444.00	5806.00
445.00	4655.00
446.00	3901.00
447.00	3298.00
448.00	2978.00
449.00	2708.00
450.00	2575.00
451.00	2384.00
452.00	2230.00
453.00	2009.00
454.00	1940.00
455.00	1602.00
456.00	1525.00
457.00	1364.00
458.00	1293.00
459.00	1216.00
460.00	1214.00
461.00	1324.00
462.00	1340.00
463.00	1421.00
464.00	1646.00
465.00	1846.00
466.00	1914.00
467.00	2127.00
468.00	2371.00
469.00	2645.00
470.00	2823.00
471.00	3072.00
472.00	3376.00
473.00	3684.00
474.00	3891.00
475.00	4077.00
476.00	4291.00
477.00	4259.00
478.00	4114.00
479.00	3969.00
480.00	3613.00
481.00	3420.00
482.00	3044.00
483.00	2620.00
484.00	2247.00
485.00	1807.00
486.00	1573.00
487.00	1324.00
488.00	1133.00
489.00	1043.00
490.00	933.00
491.00	924.00
492.00	880.00
493.00	825.00
494.00	934.00
495.00	882.00
496.00	1003.00
497.00	1065.00
498.00	1058.00
499.00	1069.00
500.00	1129.00
501.00	1200.00
502.00	1181.00
503.00	1230.00
504.00	1212.00
505.00	1263.00
506.00	1414.00
507.00	1350.00
508.00	1378.00
509.00	1450.00
510.00	1446.00
511.00	1488.00
512.00	1553.00
513.00	1693.00
514.00	1737.00
515.00	1892.00
516.00	2053.00
517.00	2193.00
518.00	2220.00
519.00	2476.00
520.00	2586.00
521.00	2666.00
522.00	2873.00
523.00	2777.00
524.00	2784.00
525.00	2683.00
526.00	2758.00
527.00	2535.00
528.00	2450.00
529.00	2295.00
530.00	2188.00
531.00	2037.00
532.00	1887.00
533.00	1934.00
534.00	1801.00
535.00	1893.00
536.00	1838.00
537.00	1830.00
538.00	1760.00
539.00	1855.00
540.00	1885.00
541.00	1904.00
542.00	1850.00
543.00	1850.00
544.00	1898.00
545.00	1936.00
546.00	1915.00
547.00	1965.00
548.00	1966.00
549.00	1959.00
550.00	2026.00
551.00	2028.00
552.00	2116.00
553.00	2153.00
554.00	2319.00
555.00	2457.00
556.00	2936.00
557.00	3384.00
558.00	4041.00
559.00	5079.00
560.00	6380.00
561.00	8073.00
562.00	9915.00
563.00	11923.00
564.00	14404.00
565.00	16495.00
566.00	18873.00
567.00	20637.00
568.00	22193.00
569.00	23420.00
570.00	23489.00
571.00	23011.00
572.00	21782.00
573.00	20027.00
574.00	18030.00
575.00	15704.00
576.00	13253.00
577.00	11071.00
578.00	9087.00
579.00	7343.00
580.00	5773.00
581.00	4589.00
582.00	3715.00
583.00	3120.00
584.00	2748.00
585.00	2519.00
586.00	2359.00
587.00	2274.00
588.00	2317.00
589.00	2364.00
590.00	2545.00
591.00	2544.00
592.00	2556.00
593.00	2811.00
594.00	3018.00
595.00	3167.00
596.00	3512.00
597.00	4032.00
598.00	4524.00
599.00	5345.00
600.00	6997.00
601.00	9007.00
602.00	12416.00
603.00	17577.00
604.00	24746.00
605.00	35138.00
606.00	49010.00
607.00	68300.00
608.00	92656.00
609.00	123657.00
610.00	159595.00
611.00	202019.00
612.00	247850.00
613.00	294183.00
614.00	340292.00
615.00	383002.00
616.00	418131.00
617.00	444166.00
618.00	454313.00
619.00	454318.00
620.00	438425.00
621.00	410991.00
622.00	374253.00
623.00	330796.00
624.00	283499.00
625.00	235816.00
626.00	190985.00
627.00	150690.00
628.00	115868.00
629.00	86386.00
630.00	62867.00
631.00	45770.00
632.00	32182.00
633.00	22725.00
634.00	15941.00
635.00	11489.00
636.00	8402.00
637.00	6505.00
638.00	5214.00
639.00	4514.00
640.00	3941.00
641.00	3729.00
642.00	3591.00
643.00	3409.00
644.00	3388.00
645.00	3357.00
646.00	3369.00
647.00	3485.00
648.00	3438.00
649.00	3579.00
650.00	3620.00
651.00	3727.00
652.00	3725.00
653.00	3859.00
654.00	3858.00
655.00	4086.00
656.00	4158.00
657.00	4273.00
658.00	4474.00
659.00	4596.00
660.00	4747.00
661.00	5124.00
662.00	5387.00
663.00	5816.00
664.00	6423.00
665.00	7092.00
666.00	8246.00
667.00	9639.00
668.00	11409.00
669.00	13802.00
670.00	17194.00
671.00	20820.00
672.00	25623.00
673.00	31291.00
674.00	37542.00
675.00	44010.00
676.00	50442.00
677.00	57067.00
678.00	63147.00
679.00	67825.00
680.00	71617.00
681.00	73013.00
682.00	72937.00
683.00	70717.00
684.00	67599.00
685.00	62054.00
686.00	56094.00
687.00	49488.00
688.00	42365.00
689.00	35463.00
690.00	28946.00
691.00	23300.00
692.00	18556.00
693.00	14269.00
694.00	11337.00
695.00	8725.00
696.00	6956.00
697.00	5692.00
698.00	4757.00
699.00	4193.00
700.00	3826.00
701.00	3433.00
702.00	3381.00
703.00	3277.00
704.00	3334.00
705.00	3361.00
706.00	3334.00
707.00	3430.00
708.00	3608.00
709.00	3721.00
710.00	3740.00
711.00	3997.00
712.00	3984.00
713.00	4325.00
714.00	4473.00
715.00	4681.00
716.00	5048.00
717.00	5007.00
718.00	5239.00
719.00	5326.00
720.00	5617.00
721.00	5553.00
722.00	5481.00
723.00	5545.00
724.00	5456.00
725.00	5256.00
726.00	5119.00
727.00	4945.00
728.00	4792.00
729.00	4439.00
730.00	4330.00
731.00	4033.00
732.00	3871.00
733.00	3854.00
734.00	3776.00
735.00	3589.00
736.00	3400.00
737.00	3430.00
738.00	3541.00
739.00	3383.00
740.00	3316.00
741.00	3211.00
742.00	3291.00
743.00	3312.00
744.00	3250.00
745.00	3190.00
746.00	3194.00
747.00	3202.00
748.00	3190.00
749.00	3209.00
750.00	3239.00
751.00	3197.00
752.00	3225.00
753.00	3244.00
754.00	3298.00
755.00	3271.00
756.00	3281.00
757.00	3352.00
758.00	3447.00
759.00	3522.00
760.00	3505.00
761.00	3543.00
762.00	3609.00
763.00	3734.00
764.00	3901.00
765.00	3968.00
766.00	4149.00
767.00	4397.00
768.00	4474.00
769.00	4673.00
770.00	4718.00
771.00	5013.00
772.00	5243.00
773.00	5498.00
774.00	5563.00
775.00	5858.00
776.00	5796.00
777.00	6061.00
778.00	5986.00
779.00	5977.00
780.00	5983.00
781.00	5894.00
782.00	5837.00
783.00	5806.00
784.00	5657.00
785.00	5635.00
786.00	5507.00
787.00	5671.00
788.00	5483.00
789.00	5546.00
790.00	5595.00
791.00	5565.00
792.00	5580.00
793.00	5599.00
794.00	5715.00
795.00	5656.00
796.00	5696.00
797.00	5704.00
798.00	5830.00
799.00	5805.00
800.00	5816.00
801.00	5871.00
802.00	5845.00
803.00	5746.00
804.00	5857.00
805.00	5910.00
806.00	5976.00
807.00	5935.00
808.00	5772.00
809.00	5963.00
810.00	5807.00
811.00	5827.00
812.00	6041.00
813.00	5856.00
814.00	5699.00
815.00	5799.00
816.00	5886.00
817.00	6060.00
818.00	6061.00
819.00	6241.00
820.00	6390.00
821.00	6567.00
822.00	7011.00
823.00	7462.00
824.00	7835.00
825.00	8440.00
826.00	9075.00
827.00	9851.00
828.00	10263.00
829.00	10987.00
830.00	11385.00
831.00	11939.00
832.00	12228.00
833.00	12193.00
834.00	12354.00
835.00	12175.00
836.00	11675.00
837.00	11171.00
838.00	10665.00
839.00	10100.00
840.00	9410.00
841.00	8798.00
842.00	8403.00
843.00	7825.00
844.00	7315.00
845.00	6833.00
846.00	6492.00
847.00	6211.00
848.00	6060.00
849.00	5817.00
850.00	5849.00
851.00	5908.00
852.00	5691.00
853.00	5762.00
854.00	5782.00
855.00	5817.00
856.00	5851.00
857.00	5821.00
858.00	5877.00
859.00	5960.00
860.00	6011.00
861.00	5967.00
862.00	6009.00
863.00	5979.00
864.00	6014.00
865.00	5993.00
866.00	5899.00
867.00	6025.00
868.00	5815.00
869.00	6061.00
870.00	5931.00
871.00	6030.00
872.00	5942.00
873.00	6163.00
874.00	5997.00
875.00	6150.00
876.00	6345.00
877.00	6251.00
878.00	6344.00
879.00	6340.00
880.00	6359.00
881.00	6447.00
882.00	6658.00
883.00	6663.00
884.00	6664.00
885.00	6805.00
886.00	6941.00
887.00	6815.00
888.00	7015.00
889.00	6910.00
890.00	7036.00
891.00	7087.00
892.00	7194.00
893.00	7315.00
894.00	7157.00
895.00	7123.00
896.00	7259.00
897.00	7216.00
898.00	7134.00
899.00	7009.00
900.00	7163.00
901.00	7041.00
902.00	7016.00
903.00	7136.00
904.00	7080.00
905.00	7210.00
906.00	6962.00
907.00	7074.00
908.00	7240.00
909.00	7171.00
910.00	7247.00
911.00	7230.00
912.00	7301.00
913.00	7544.00
914.00	7523.00
915.00	7777.00
916.00	7704.00
917.00	7811.00
918.00	8101.00
919.00	8278.00
920.00	8205.00
921.00	8334.00
922.00	8463.00
923.00	8485.00
924.00	8338.00
925.00	8594.00
926.00	8442.00
927.00	8488.00
928.00	8510.00
929.00	8434.00
930.00	8131.00
931.00	8221.00
932.00	8011.00
933.00	7958.00
934.00	7946.00
935.00	7935.00
936.00	7776.00
937.00	7628.00
938.00	7664.00
939.00	7588.00
940.00	7529.00
941.00	7442.00
942.00	7410.00
943.00	7409.00
944.00	7565.00
945.00	7337.00
946.00	7711.00
947.00	7276.00
948.00	7341.00
949.00	7319.00
950.00	7398.00
951.00	7229.00
952.00	7470.00
953.00	7352.00
954.00	7252.00
955.00	7264.00
956.00	7408.00
957.00	7480.00
958.00	7435.00
959.00	7422.00
960.00	7314.00
961.00	7547.00
962.00	7427.00
963.00	7399.00
964.00	7530.00
965.00	7460.00
966.00	7432.00
967.00	7386.00
968.00	7463.00
969.00	7419.00
970.00	7321.00
971.00	7502.00
972.00	7287.00
973.00	7422.00
974.00	7543.00
975.00	7402.00
976.00	7531.00
977.00	7412.00
978.00	7407.00
979.00	7430.00
980.00	7577.00
981.00	7646.00
982.00	7564.00
983.00	7586.00
984.00	7489.00
985.00	7663.00
986.00	7648.00
987.00	7766.00
988.00	7607.00
989.00	7755.00
990.00	7456.00
991.00	7524.00
992.00	7663.00
993.00	7666.00
994.00	7674.00
995.00	7580.00
996.00	7641.00
997.00	7679.00
998.00	7616.00
999.00	7646.00
1000.00	7553.00
1001.00	7799.00
1002.00	7785.00
1003.00	7836.00
1004.00	7650.00
1005.00	7677.00
1006.00	7952.00
1007.00	7904.00
1008.00	7962.00
1009.00	8031.00
1010.00	8085.00
1011.00	8257.00
1012.00	8328.00
1013.00	8451.00
1014.00	8478.00
1015.00	8466.00
1016.00	8397.00
1017.00	8360.00
1018.00	8451.00
1019.00	8457.00
1020.00	8426.00
1021.00	8350.00
1022.00	8356.00
1023.00	8251.00
1024.00	8100.00
1025.00	8036.00
1026.00	8006.00
1027.00	7908.00
1028.00	7743.00
1029.00	7680.00
1030.00	7733.00
1031.00	7727.00
1032.00	7636.00
1033.00	7701.00
1034.00	7663.00
1035.00	7532.00
1036.00	7536.00
1037.00	7502.00
1038.00	7624.00
1039.00	7535.00
1040.00	7799.00
1041.00	7590.00
1042.00	7575.00
1043.00	7617.00
1044.00	7785.00
1045.00	7785.00
1046.00	7798.00
1047.00	7766.00
1048.00	7766.00
1049.00	7743.00
1050.00	7733.00
1051.00	7896.00
1052.00	7659.00
1053.00	7905.00
1054.00	8044.00
1055.00	8011.00
1056.00	7797.00
1057.00	7797.00
1058.00	7968.00
1059.00	7947.00
1060.00	7873.00
1061.00	7908.00
1062.00	8031.00
1063.00	7852.00
1064.00	8069.00
1065.00	8164.00
1066.00	8044.00
1067.00	8002.00
1068.00	8189.00
1069.00	8132.00
1070.00	7962.00
1071.00	7908.00
1072.00	8099.00
1073.00	8178.00
1074.00	8016.00
1075.00	8022.00
1076.00	8219.00
1077.00	8019.00
1078.00	8081.00
1079.00	8005.00
1080.00	8097.00
1081.00	8089.00
1082.00	8030.00
1083.00	8143.00
1084.00	8204.00
1085.00	8185.00
1086.00	8206.00
1087.00	8289.00
1088.00	8353.00
1089.00	8338.00
1090.00	8125.00
1091.00	8238.00
1092.00	8242.00
1093.00	8153.00
1094.00	8184.00
1095.00	8300.00
1096.00	8282.00
1097.00	8351.00
1098.00	8267.00
1099.00	8291.00
1100.00	8259.00
1101.00	8155.00
1102.00	8210.00
1103.00	8307.00
1104.00	8211.00
1105.00	8283.00
1106.00	8148.00
1107.00	8199.00
1108.00	8139.00
1109.00	8256.00
1110.00	8295.00
1111.00	8368.00
1112.00	8278.00
1113.00	8266.00
1114.00	8290.00
1115.00	8261.00
1116.00	8348.00
1117.00	8262.00
1118.00	8189.00
1119.00	8185.00
1120.00	8063.00
1121.00	8339.00
1122.00	8401.00
1123.00	8225.00
1124.00	8106.00
1125.00	8172.00
1126.00	8319.00
1127.00	8045.00
1128.00	8191.00
1129.00	8361.00
1130.00	8127.00
1131.00	8321.00
1132.00	8208.00
1133.00	8217.00
1134.00	8287.00
1135.00	8221.00
1136.00	8374.00
1137.00	8349.00
1138.00	8079.00
1139.00	8469.00
1140.00	8291.00
1141.00	8301.00
1142.00	8369.00
1143.00	8536.00
1144.00	8579.00
1145.00	8340.00
1146.00	8446.00
1147.00	8460.00
1148.00	8572.00
1149.00	8524.00
1150.00	8538.00
1151.00	8399.00
1152.00	8411.00
1153.00	8213.00
1154.00	8338.00
1155.00	8310.00
1156.00	8389.00
1157.00	8323.00
1158.00	8346.00
1159.00	8157.00
1160.00	8395.00
1161.00	8165.00
1162.00	8044.00
1163.00	8151.00
1164.00	8024.00
1165.00	8185.00
1166.00	8176.00
1167.00	8109.00
1168.00	8177.00
1169.00	8004.00
1170.00	8238.00
1171.00	8129.00
1172.00	8108.00
1173.00	8168.00
1174.00	8282.00
1175.00	8160.00
1176.00	8218.00
1177.00	8048.00
1178.00	8184.00
1179.00	8250.00
1180.00	7907.00
1181.00	8273.00
1182.00	8158.00
1183.00	8066.00
1184.00	8178.00
1185.00	8220.00
1186.00	8316.00
1187.00	8387.00
1188.00	8183.00
1189.00	8280.00
1190.00	8319.00
1191.00	8360.00
1192.00	8098.00
1193.00	8124.00
1194.00	8285.00
1195.00	8249.00
1196.00	8321.00
1197.00	8250.00
1198.00	8160.00
1199.00	8058.00
1200.00	8328.00
1201.00	8333.00
1202.00	8300.00
1203.00	8258.00
1204.00	8367.00
1205.00	8526.00
1206.00	8430.00
1207.00	8617.00
1208.00	8383.00
1209.00	8529.00
1210.00	8710.00
1211.00	8690.00
1212.00	8723.00
1213.00	8930.00
1214.00	8769.00
1215.00	8805.00
1216.00	8988.00
1217.00	8899.00
1218.00	8949.00
1219.00	8891.00
1220.00	8904.00
1221.00	9114.00
1222.00	9053.00
1223.00	9030.00
1224.00	9024.00
1225.00	9216.00
1226.00	9093.00
1227.00	8989.00
1228.00	9057.00
1229.00	9074.00
1230.00	9217.00
1231.00	9009.00
1232.00	9045.00
1233.00	9375.00
1234.00	9311.00
1235.00	9065.00
1236.00	9234.00
1237.00	9162.00
1238.00	9046.00
1239.00	9030.00
1240.00	9182.00
1241.00	8937.00
1242.00	8921.00
1243.00	8693.00
1244.00	8782.00
1245.00	8705.00
1246.00	8443.00
1247.00	8411.00
1248.00	8591.00
1249.00	8502.00
1250.00	8280.00
1251.00	8450.00
1252.00	8407.00
1253.00	8401.00
1254.00	8307.00
1255.00	8410.00
1256.00	8342.00
1257.00	8231.00
1258.00	8239.00
1259.00	8222.00
1260.00	8333.00
1261.00	8246.00
1262.00	8327.00
1263.00	8368.00
1264.00	8169.00
1265.00	8385.00
1266.00	8430.00
1267.00	8312.00
1268.00	8388.00
1269.00	8298.00
1270.00	8344.00
1271.00	8521.00
1272.00	8513.00
1273.00	8303.00
1274.00	8490.00
1275.00	8698.00
1276.00	8832.00
1277.00	8895.00
1278.00	8888.00
1279.00	9023.00
1280.00	9146.00
1281.00	9186.00
1282.00	9471.00
1283.00	9378.00
1284.00	9524.00
1285.00	9696.00
1286.00	9947.00
1287.00	9884.00
1288.00	9982.00
1289.00	9903.00
1290.00	9892.00
1291.00	10082.00
1292.00	9949.00
1293.00	10060.00
1294.00	9789.00
