Date:	2023-09-18		
Time:	20:59		
Sample name:	Pellets		
Position:	1014.600011	mm	
Sample surface:	6.022097	cm	
Tube anode:	Mo		
Tube voltage:	30	kV	
Tube current:	50	mA	
Comments	not in position		
Gain	5.810000		
peaking_time	0.300000	m-sec	
trigger_threshold	30.000000	V	
mca_bin_width	2.000000	no:	
number_mca_channels	2048.000000	no:	
gap_time	0.100000	m-sec	
trigger_peaking_time	0.050000	m-sec	
livetime	17.143803	seconds	
runtime	20.000356	seconds	
input_count_rate	122471.543548	cps	
output_count_rate	104979.531364	cps	
triggers	2358081.000000	seconds	
events_in_run	2089092.000000	seconds	
channel	content		
 1.00	 0.00
 2.00	 0.00
 3.00	 0.00
 4.00	 0.00
 5.00	 0.00
 6.00	 0.00
 7.00	 0.00
 8.00	 0.00
 9.00	 0.00
10.00	 0.00
11.00	 0.00
12.00	 0.00
13.00	 0.00
14.00	 0.00
15.00	 0.00
16.00	 0.00
17.00	 0.00
18.00	 0.00
19.00	 0.00
20.00	 0.00
21.00	 0.00
22.00	 0.00
23.00	 0.00
24.00	 0.00
25.00	 0.00
26.00	 0.00
27.00	 0.00
28.00	 0.00
29.00	 0.00
30.00	 0.00
31.00	 1.00
32.00	 2.00
33.00	 0.00
34.00	 3.00
35.00	14.00
36.00	 5.00
37.00	15.00
38.00	18.00
39.00	35.00
40.00	41.00
41.00	58.00
42.00	72.00
43.00	77.00
44.00	100.00
45.00	112.00
46.00	133.00
47.00	168.00
48.00	183.00
49.00	214.00
50.00	221.00
51.00	254.00
52.00	247.00
53.00	304.00
54.00	263.00
55.00	290.00
56.00	337.00
57.00	328.00
58.00	320.00
59.00	319.00
60.00	362.00
61.00	347.00
62.00	344.00
63.00	344.00
64.00	351.00
65.00	336.00
66.00	386.00
67.00	389.00
68.00	401.00
69.00	399.00
70.00	347.00
71.00	377.00
72.00	416.00
73.00	366.00
74.00	372.00
75.00	392.00
76.00	377.00
77.00	356.00
78.00	365.00
79.00	374.00
80.00	336.00
81.00	418.00
82.00	354.00
83.00	390.00
84.00	426.00
85.00	359.00
86.00	352.00
87.00	325.00
88.00	405.00
89.00	335.00
90.00	361.00
91.00	328.00
92.00	321.00
93.00	330.00
94.00	346.00
95.00	309.00
96.00	298.00
97.00	332.00
98.00	323.00
99.00	302.00
100.00	311.00
101.00	299.00
102.00	321.00
103.00	295.00
104.00	281.00
105.00	275.00
106.00	280.00
107.00	281.00
108.00	273.00
109.00	283.00
110.00	289.00
111.00	295.00
112.00	288.00
113.00	270.00
114.00	270.00
115.00	252.00
116.00	274.00
117.00	280.00
118.00	269.00
119.00	284.00
120.00	288.00
121.00	240.00
122.00	257.00
123.00	280.00
124.00	228.00
125.00	243.00
126.00	190.00
127.00	223.00
128.00	196.00
129.00	203.00
130.00	253.00
131.00	192.00
132.00	193.00
133.00	187.00
134.00	190.00
135.00	218.00
136.00	232.00
137.00	287.00
138.00	353.00
139.00	436.00
140.00	561.00
141.00	732.00
142.00	886.00
143.00	964.00
144.00	1061.00
145.00	1040.00
146.00	1035.00
147.00	909.00
148.00	801.00
149.00	795.00
150.00	649.00
151.00	578.00
152.00	548.00
153.00	536.00
154.00	473.00
155.00	459.00
156.00	423.00
157.00	433.00
158.00	416.00
159.00	583.00
160.00	932.00
161.00	1609.00
162.00	2630.00
163.00	4279.00
164.00	6397.00
165.00	8918.00
166.00	11650.00
167.00	13835.00
168.00	15628.00
169.00	16064.00
170.00	15662.00
171.00	14104.00
172.00	11567.00
173.00	9050.00
174.00	6755.00
175.00	4899.00
176.00	3498.00
177.00	2400.00
178.00	1748.00
179.00	1280.00
180.00	1008.00
181.00	768.00
182.00	679.00
183.00	525.00
184.00	461.00
185.00	394.00
186.00	371.00
187.00	377.00
188.00	369.00
189.00	372.00
190.00	371.00
191.00	361.00
192.00	345.00
193.00	370.00
194.00	354.00
195.00	330.00
196.00	308.00
197.00	294.00
198.00	258.00
199.00	276.00
200.00	236.00
201.00	189.00
202.00	212.00
203.00	214.00
204.00	168.00
205.00	204.00
206.00	187.00
207.00	175.00
208.00	155.00
209.00	167.00
210.00	173.00
211.00	168.00
212.00	207.00
213.00	173.00
214.00	170.00
215.00	183.00
216.00	194.00
217.00	215.00
218.00	237.00
219.00	250.00
220.00	253.00
221.00	298.00
222.00	299.00
223.00	320.00
224.00	324.00
225.00	303.00
226.00	295.00
227.00	260.00
228.00	232.00
229.00	248.00
230.00	216.00
231.00	226.00
232.00	158.00
233.00	188.00
234.00	167.00
235.00	174.00
236.00	195.00
237.00	171.00
238.00	152.00
239.00	165.00
240.00	187.00
241.00	168.00
242.00	159.00
243.00	166.00
244.00	166.00
245.00	173.00
246.00	168.00
247.00	160.00
248.00	155.00
249.00	170.00
250.00	168.00
251.00	187.00
252.00	180.00
253.00	185.00
254.00	203.00
255.00	192.00
256.00	170.00
257.00	184.00
258.00	191.00
259.00	204.00
260.00	194.00
261.00	201.00
262.00	190.00
263.00	205.00
264.00	243.00
265.00	247.00
266.00	255.00
267.00	280.00
268.00	295.00
269.00	255.00
270.00	284.00
271.00	251.00
272.00	235.00
273.00	254.00
274.00	222.00
275.00	243.00
276.00	259.00
277.00	315.00
278.00	425.00
279.00	526.00
280.00	683.00
281.00	914.00
282.00	1271.00
283.00	1438.00
284.00	1625.00
285.00	1943.00
286.00	2060.00
287.00	2065.00
288.00	1967.00
289.00	1792.00
290.00	1580.00
291.00	1330.00
292.00	1117.00
293.00	852.00
294.00	603.00
295.00	458.00
296.00	338.00
297.00	239.00
298.00	216.00
299.00	234.00
300.00	233.00
301.00	240.00
302.00	263.00
303.00	310.00
304.00	340.00
305.00	382.00
306.00	454.00
307.00	527.00
308.00	688.00
309.00	878.00
310.00	1212.00
311.00	1751.00
312.00	2594.00
313.00	3878.00
314.00	5468.00
315.00	7376.00
316.00	9782.00
317.00	12465.00
318.00	14969.00
319.00	17117.00
320.00	18539.00
321.00	18869.00
322.00	18617.00
323.00	17534.00
324.00	15366.00
325.00	12855.00
326.00	10307.00
327.00	8049.00
328.00	5764.00
329.00	3954.00
330.00	2537.00
331.00	1790.00
332.00	1132.00
333.00	753.00
334.00	559.00
335.00	419.00
336.00	454.00
337.00	482.00
338.00	569.00
339.00	668.00
340.00	927.00
341.00	1208.00
342.00	1454.00
343.00	1829.00
344.00	2343.00
345.00	2793.00
346.00	3251.00
347.00	3777.00
348.00	4464.00
349.00	5144.00
350.00	6163.00
351.00	7339.00
352.00	8657.00
353.00	10085.00
354.00	11549.00
355.00	12641.00
356.00	13602.00
357.00	14270.00
358.00	13941.00
359.00	13410.00
360.00	12111.00
361.00	10429.00
362.00	8530.00
363.00	6678.00
364.00	5211.00
365.00	3680.00
366.00	2689.00
367.00	1807.00
368.00	1166.00
369.00	766.00
370.00	526.00
371.00	450.00
372.00	322.00
373.00	294.00
374.00	318.00
375.00	314.00
376.00	335.00
377.00	413.00
378.00	483.00
379.00	530.00
380.00	719.00
381.00	837.00
382.00	1072.00
383.00	1301.00
384.00	1557.00
385.00	1757.00
386.00	1967.00
387.00	2121.00
388.00	2228.00
389.00	2251.00
390.00	2091.00
391.00	2058.00
392.00	1887.00
393.00	1599.00
394.00	1356.00
395.00	1118.00
396.00	917.00
397.00	795.00
398.00	627.00
399.00	525.00
400.00	450.00
401.00	398.00
402.00	391.00
403.00	380.00
404.00	355.00
405.00	340.00
406.00	257.00
407.00	295.00
408.00	326.00
409.00	306.00
410.00	301.00
411.00	320.00
412.00	341.00
413.00	319.00
414.00	340.00
415.00	346.00
416.00	434.00
417.00	393.00
418.00	442.00
419.00	462.00
420.00	521.00
421.00	637.00
422.00	865.00
423.00	1069.00
424.00	1443.00
425.00	1894.00
426.00	2742.00
427.00	3711.00
428.00	4873.00
429.00	6576.00
430.00	8244.00
431.00	10073.00
432.00	12106.00
433.00	13661.00
434.00	15270.00
435.00	16188.00
436.00	16521.00
437.00	16293.00
438.00	15802.00
439.00	14204.00
440.00	12472.00
441.00	10780.00
442.00	8911.00
443.00	7475.00
444.00	5856.00
445.00	4833.00
446.00	4023.00
447.00	3438.00
448.00	3119.00
449.00	2848.00
450.00	2655.00
451.00	2496.00
452.00	2354.00
453.00	2135.00
454.00	1981.00
455.00	1706.00
456.00	1538.00
457.00	1439.00
458.00	1327.00
459.00	1283.00
460.00	1299.00
461.00	1368.00
462.00	1461.00
463.00	1533.00
464.00	1666.00
465.00	1871.00
466.00	2060.00
467.00	2227.00
468.00	2498.00
469.00	2660.00
470.00	2983.00
471.00	3240.00
472.00	3444.00
473.00	3841.00
474.00	3997.00
475.00	4236.00
476.00	4304.00
477.00	4330.00
478.00	4258.00
479.00	4158.00
480.00	3845.00
481.00	3509.00
482.00	3155.00
483.00	2744.00
484.00	2322.00
485.00	1968.00
486.00	1654.00
487.00	1327.00
488.00	1242.00
489.00	1106.00
490.00	1022.00
491.00	948.00
492.00	936.00
493.00	921.00
494.00	953.00
495.00	962.00
496.00	979.00
497.00	971.00
498.00	1158.00
499.00	1149.00
500.00	1163.00
501.00	1191.00
502.00	1282.00
503.00	1290.00
504.00	1269.00
505.00	1332.00
506.00	1374.00
507.00	1468.00
508.00	1502.00
509.00	1472.00
510.00	1575.00
511.00	1524.00
512.00	1664.00
513.00	1750.00
514.00	1815.00
515.00	1951.00
516.00	2061.00
517.00	2153.00
518.00	2364.00
519.00	2502.00
520.00	2670.00
521.00	2760.00
522.00	2887.00
523.00	2910.00
524.00	2884.00
525.00	2797.00
526.00	2607.00
527.00	2547.00
528.00	2501.00
529.00	2264.00
530.00	2169.00
531.00	2052.00
532.00	1900.00
533.00	1935.00
534.00	1867.00
535.00	1876.00
536.00	1825.00
537.00	1743.00
538.00	1827.00
539.00	1915.00
540.00	1868.00
541.00	1906.00
542.00	1917.00
543.00	1911.00
544.00	1878.00
545.00	1873.00
546.00	1905.00
547.00	1895.00
548.00	1951.00
549.00	1968.00
550.00	1900.00
551.00	1977.00
552.00	1990.00
553.00	2212.00
554.00	2356.00
555.00	2511.00
556.00	3018.00
557.00	3571.00
558.00	4413.00
559.00	5530.00
560.00	6916.00
561.00	8681.00
562.00	10891.00
563.00	13413.00
564.00	15836.00
565.00	18725.00
566.00	21169.00
567.00	23209.00
568.00	24897.00
569.00	25793.00
570.00	26219.00
571.00	25667.00
572.00	24356.00
573.00	22750.00
574.00	20288.00
575.00	17489.00
576.00	14843.00
577.00	12136.00
578.00	10113.00
579.00	7877.00
580.00	6379.00
581.00	4920.00
582.00	3975.00
583.00	3347.00
584.00	2916.00
585.00	2607.00
586.00	2358.00
587.00	2301.00
588.00	2279.00
589.00	2317.00
590.00	2490.00
591.00	2549.00
592.00	2713.00
593.00	2857.00
594.00	3039.00
595.00	3145.00
596.00	3582.00
597.00	3966.00
598.00	4608.00
599.00	5629.00
600.00	7119.00
601.00	9380.00
602.00	13364.00
603.00	18303.00
604.00	25978.00
605.00	37093.00
606.00	52283.00
607.00	72100.00
608.00	98083.00
609.00	130724.00
610.00	168960.00
611.00	213178.00
612.00	261498.00
613.00	311043.00
614.00	360708.00
615.00	406024.00
616.00	442134.00
617.00	468288.00
618.00	480631.00
619.00	481084.00
620.00	462915.00
621.00	434366.00
622.00	396621.00
623.00	349455.00
624.00	300860.00
625.00	249873.00
626.00	202864.00
627.00	159870.00
628.00	121929.00
629.00	91685.00
630.00	67003.00
631.00	48053.00
632.00	33970.00
633.00	23725.00
634.00	16745.00
635.00	11883.00
636.00	8858.00
637.00	6763.00
638.00	5508.00
639.00	4619.00
640.00	4003.00
641.00	3827.00
642.00	3582.00
643.00	3435.00
644.00	3416.00
645.00	3385.00
646.00	3436.00
647.00	3440.00
648.00	3483.00
649.00	3482.00
650.00	3549.00
651.00	3849.00
652.00	3765.00
653.00	3970.00
654.00	3885.00
655.00	4168.00
656.00	4138.00
657.00	4156.00
658.00	4365.00
659.00	4571.00
660.00	4978.00
661.00	5019.00
662.00	5491.00
663.00	5887.00
664.00	6418.00
665.00	7371.00
666.00	8560.00
667.00	9922.00
668.00	11752.00
669.00	14330.00
670.00	17759.00
671.00	21738.00
672.00	26872.00
673.00	32349.00
674.00	38782.00
675.00	45667.00
676.00	52639.00
677.00	59956.00
678.00	65968.00
679.00	71271.00
680.00	74950.00
681.00	77015.00
682.00	76541.00
683.00	74400.00
684.00	71016.00
685.00	65889.00
686.00	58895.00
687.00	51705.00
688.00	44500.00
689.00	37013.00
690.00	30484.00
691.00	24693.00
692.00	19330.00
693.00	14977.00
694.00	11948.00
695.00	9026.00
696.00	7169.00
697.00	5806.00
698.00	4881.00
699.00	4274.00
700.00	3738.00
701.00	3566.00
702.00	3340.00
703.00	3360.00
704.00	3257.00
705.00	3367.00
706.00	3360.00
707.00	3515.00
708.00	3516.00
709.00	3605.00
710.00	3717.00
711.00	3898.00
712.00	4077.00
713.00	4208.00
714.00	4347.00
715.00	4547.00
716.00	4876.00
717.00	4913.00
718.00	5209.00
719.00	5194.00
720.00	5357.00
721.00	5376.00
722.00	5514.00
723.00	5322.00
724.00	5264.00
725.00	4989.00
726.00	4924.00
727.00	4520.00
728.00	4352.00
729.00	4287.00
730.00	4105.00
731.00	3926.00
732.00	3847.00
733.00	3697.00
734.00	3502.00
735.00	3431.00
736.00	3363.00
737.00	3447.00
738.00	3372.00
739.00	3395.00
740.00	3208.00
741.00	3226.00
742.00	3171.00
743.00	3133.00
744.00	3130.00
745.00	3135.00
746.00	3147.00
747.00	3133.00
748.00	3214.00
749.00	3150.00
750.00	3136.00
751.00	3265.00
752.00	3236.00
753.00	3206.00
754.00	3261.00
755.00	3336.00
756.00	3264.00
757.00	3361.00
758.00	3404.00
759.00	3561.00
760.00	3556.00
761.00	3575.00
762.00	3721.00
763.00	3681.00
764.00	3941.00
765.00	3994.00
766.00	4072.00
767.00	4255.00
768.00	4564.00
769.00	4496.00
770.00	4753.00
771.00	5077.00
772.00	5063.00
773.00	5317.00
774.00	5442.00
775.00	5388.00
776.00	5709.00
777.00	5463.00
778.00	5710.00
779.00	5744.00
780.00	5717.00
781.00	5756.00
782.00	5662.00
783.00	5594.00
784.00	5500.00
785.00	5575.00
786.00	5382.00
787.00	5527.00
788.00	5442.00
789.00	5443.00
790.00	5439.00
791.00	5484.00
792.00	5527.00
793.00	5620.00
794.00	5632.00
795.00	5541.00
796.00	5680.00
797.00	5633.00
798.00	5689.00
799.00	5614.00
800.00	5787.00
801.00	5822.00
802.00	5676.00
803.00	5787.00
804.00	5841.00
805.00	5796.00
806.00	5915.00
807.00	5761.00
808.00	5850.00
809.00	5755.00
810.00	5676.00
811.00	5658.00
812.00	5749.00
813.00	5844.00
814.00	5869.00
815.00	5795.00
816.00	5723.00
817.00	5970.00
818.00	5774.00
819.00	6168.00
820.00	6123.00
821.00	6485.00
822.00	6969.00
823.00	7208.00
824.00	7827.00
825.00	8260.00
826.00	8696.00
827.00	9363.00
828.00	9745.00
829.00	10707.00
830.00	10993.00
831.00	11041.00
832.00	11678.00
833.00	11735.00
834.00	11706.00
835.00	11606.00
836.00	11353.00
837.00	10809.00
838.00	10299.00
839.00	9580.00
840.00	9059.00
841.00	8594.00
842.00	8035.00
843.00	7696.00
844.00	7081.00
845.00	6833.00
846.00	6358.00
847.00	6125.00
848.00	5884.00
849.00	5840.00
850.00	5916.00
851.00	5724.00
852.00	5650.00
853.00	5718.00
854.00	5610.00
855.00	5695.00
856.00	5850.00
857.00	5706.00
858.00	5847.00
859.00	5813.00
860.00	5906.00
861.00	5777.00
862.00	6096.00
863.00	5923.00
864.00	5854.00
865.00	5934.00
866.00	5944.00
867.00	5936.00
868.00	5938.00
869.00	6023.00
870.00	5954.00
871.00	6171.00
872.00	6014.00
873.00	6003.00
874.00	5992.00
875.00	6136.00
876.00	6100.00
877.00	6085.00
878.00	6260.00
879.00	6348.00
880.00	6479.00
881.00	6466.00
882.00	6588.00
883.00	6407.00
884.00	6575.00
885.00	6700.00
886.00	6703.00
887.00	6849.00
888.00	6730.00
889.00	6948.00
890.00	6895.00
891.00	6902.00
892.00	6960.00
893.00	6868.00
894.00	7016.00
895.00	6890.00
896.00	6939.00
897.00	7052.00
898.00	7023.00
899.00	6929.00
900.00	6984.00
901.00	6959.00
902.00	6981.00
903.00	6933.00
904.00	6871.00
905.00	7066.00
906.00	7084.00
907.00	7003.00
908.00	7065.00
909.00	7173.00
910.00	7118.00
911.00	7228.00
912.00	7256.00
913.00	7343.00
914.00	7407.00
915.00	7669.00
916.00	7744.00
917.00	7747.00
918.00	7809.00
919.00	7978.00
920.00	8088.00
921.00	8229.00
922.00	8278.00
923.00	8123.00
924.00	8311.00
925.00	8432.00
926.00	8253.00
927.00	8317.00
928.00	8370.00
929.00	8193.00
930.00	8159.00
931.00	8135.00
932.00	7871.00
933.00	7939.00
934.00	7744.00
935.00	7686.00
936.00	7645.00
937.00	7630.00
938.00	7600.00
939.00	7467.00
940.00	7424.00
941.00	7344.00
942.00	7236.00
943.00	7204.00
944.00	7250.00
945.00	7244.00
946.00	7477.00
947.00	7297.00
948.00	7374.00
949.00	7290.00
950.00	7224.00
951.00	7300.00
952.00	7374.00
953.00	7237.00
954.00	7254.00
955.00	7309.00
956.00	7257.00
957.00	7315.00
958.00	7255.00
959.00	7321.00
960.00	7256.00
961.00	7322.00
962.00	7316.00
963.00	7233.00
964.00	7363.00
965.00	7346.00
966.00	7239.00
967.00	7397.00
968.00	7347.00
969.00	7231.00
970.00	7301.00
971.00	7378.00
972.00	7261.00
973.00	7291.00
974.00	7352.00
975.00	7440.00
976.00	7240.00
977.00	7139.00
978.00	7159.00
979.00	7469.00
980.00	7295.00
981.00	7300.00
982.00	7324.00
983.00	7339.00
984.00	7390.00
985.00	7290.00
986.00	7615.00
987.00	7308.00
988.00	7467.00
989.00	7540.00
990.00	7507.00
991.00	7450.00
992.00	7480.00
993.00	7594.00
994.00	7535.00
995.00	7333.00
996.00	7424.00
997.00	7539.00
998.00	7511.00
999.00	7587.00
1000.00	7508.00
1001.00	7400.00
1002.00	7593.00
1003.00	7733.00
1004.00	7757.00
1005.00	7758.00
1006.00	7728.00
1007.00	7704.00
1008.00	7962.00
1009.00	7986.00
1010.00	8105.00
1011.00	8229.00
1012.00	8201.00
1013.00	8401.00
1014.00	8571.00
1015.00	8517.00
1016.00	8604.00
1017.00	8490.00
1018.00	8375.00
1019.00	8438.00
1020.00	8359.00
1021.00	8247.00
1022.00	8273.00
1023.00	8066.00
1024.00	8023.00
1025.00	8003.00
1026.00	7838.00
1027.00	7698.00
1028.00	7769.00
1029.00	7623.00
1030.00	7418.00
1031.00	7481.00
1032.00	7445.00
1033.00	7453.00
1034.00	7450.00
1035.00	7541.00
1036.00	7327.00
1037.00	7448.00
1038.00	7490.00
1039.00	7592.00
1040.00	7435.00
1041.00	7513.00
1042.00	7549.00
1043.00	7479.00
1044.00	7572.00
1045.00	7603.00
1046.00	7452.00
1047.00	7676.00
1048.00	7761.00
1049.00	7828.00
1050.00	7614.00
1051.00	7690.00
1052.00	7615.00
1053.00	7709.00
1054.00	7649.00
1055.00	7698.00
1056.00	7700.00
1057.00	7593.00
1058.00	7839.00
1059.00	7832.00
1060.00	7784.00
1061.00	7726.00
1062.00	7708.00
1063.00	7727.00
1064.00	7789.00
1065.00	7786.00
1066.00	7804.00
1067.00	7852.00
1068.00	8026.00
1069.00	8053.00
1070.00	8038.00
1071.00	8232.00
1072.00	8019.00
1073.00	8207.00
1074.00	8326.00
1075.00	8137.00
1076.00	8185.00
1077.00	8203.00
1078.00	8055.00
1079.00	8169.00
1080.00	8035.00
1081.00	8203.00
1082.00	8171.00
1083.00	8164.00
1084.00	8225.00
1085.00	8079.00
1086.00	8174.00
1087.00	8168.00
1088.00	8177.00
1089.00	8114.00
1090.00	8025.00
1091.00	8030.00
1092.00	8243.00
1093.00	8092.00
1094.00	8098.00
1095.00	8076.00
1096.00	8171.00
1097.00	8052.00
1098.00	8268.00
1099.00	8150.00
1100.00	8207.00
1101.00	8108.00
1102.00	8134.00
1103.00	8042.00
1104.00	8227.00
1105.00	8123.00
1106.00	8215.00
1107.00	8271.00
1108.00	8162.00
1109.00	8206.00
1110.00	8230.00
1111.00	8084.00
1112.00	8359.00
1113.00	8210.00
1114.00	8205.00
1115.00	8164.00
1116.00	8154.00
1117.00	8141.00
1118.00	8214.00
1119.00	8021.00
1120.00	8130.00
1121.00	8251.00
1122.00	8093.00
1123.00	8121.00
1124.00	8134.00
1125.00	8072.00
1126.00	8067.00
1127.00	8189.00
1128.00	8058.00
1129.00	8170.00
1130.00	8174.00
1131.00	8068.00
1132.00	8153.00
1133.00	7968.00
1134.00	8110.00
1135.00	8075.00
1136.00	8150.00
1137.00	8157.00
1138.00	8307.00
1139.00	8286.00
1140.00	8243.00
1141.00	8345.00
1142.00	8376.00
1143.00	8357.00
1144.00	8345.00
1145.00	8374.00
1146.00	8384.00
1147.00	8490.00
1148.00	8442.00
1149.00	8574.00
1150.00	8143.00
1151.00	8457.00
1152.00	8326.00
1153.00	8177.00
1154.00	8306.00
1155.00	8146.00
1156.00	8102.00
1157.00	8089.00
1158.00	8070.00
1159.00	8130.00
1160.00	8160.00
1161.00	8144.00
1162.00	8092.00
1163.00	7977.00
1164.00	7898.00
1165.00	8003.00
1166.00	8048.00
1167.00	7998.00
1168.00	8010.00
1169.00	7977.00
1170.00	7834.00
1171.00	7957.00
1172.00	8037.00
1173.00	7900.00
1174.00	7928.00
1175.00	7929.00
1176.00	7994.00
1177.00	7992.00
1178.00	8029.00
1179.00	8161.00
1180.00	8000.00
1181.00	7870.00
1182.00	8194.00
1183.00	8202.00
1184.00	8022.00
1185.00	8086.00
1186.00	8083.00
1187.00	8143.00
1188.00	8082.00
1189.00	8095.00
1190.00	7992.00
1191.00	8181.00
1192.00	8170.00
1193.00	7971.00
1194.00	8142.00
1195.00	8077.00
1196.00	7973.00
1197.00	7994.00
1198.00	8214.00
1199.00	8076.00
1200.00	8126.00
1201.00	8006.00
1202.00	8361.00
1203.00	8175.00
1204.00	8311.00
1205.00	8431.00
1206.00	8395.00
1207.00	8512.00
1208.00	8325.00
1209.00	8598.00
1210.00	8442.00
1211.00	8573.00
1212.00	8478.00
1213.00	8417.00
1214.00	8871.00
1215.00	8765.00
1216.00	8804.00
1217.00	8817.00
1218.00	8884.00
1219.00	8728.00
1220.00	8780.00
1221.00	9060.00
1222.00	8810.00
1223.00	9041.00
1224.00	8967.00
1225.00	8978.00
1226.00	8946.00
1227.00	9051.00
1228.00	9040.00
1229.00	9229.00
1230.00	9160.00
1231.00	8935.00
1232.00	9336.00
1233.00	9303.00
1234.00	9076.00
1235.00	9281.00
1236.00	9150.00
1237.00	9038.00
1238.00	9010.00
1239.00	8999.00
1240.00	8872.00
1241.00	8868.00
1242.00	9009.00
1243.00	8781.00
1244.00	8687.00
1245.00	8609.00
1246.00	8550.00
1247.00	8594.00
1248.00	8276.00
1249.00	8314.00
1250.00	8393.00
1251.00	8319.00
1252.00	8325.00
1253.00	8221.00
1254.00	8287.00
1255.00	8148.00
1256.00	8223.00
1257.00	8261.00
1258.00	8097.00
1259.00	8186.00
1260.00	8298.00
1261.00	8272.00
1262.00	8192.00
1263.00	8175.00
1264.00	8057.00
1265.00	8231.00
1266.00	8257.00
1267.00	8253.00
1268.00	8251.00
1269.00	8305.00
1270.00	8273.00
1271.00	8253.00
1272.00	8247.00
1273.00	8353.00
1274.00	8660.00
1275.00	8495.00
1276.00	8673.00
1277.00	8782.00
1278.00	8850.00
1279.00	8865.00
1280.00	9063.00
1281.00	9178.00
1282.00	9277.00
1283.00	9271.00
1284.00	9648.00
1285.00	9760.00
1286.00	9933.00
1287.00	9827.00
1288.00	10024.00
1289.00	9961.00
1290.00	9986.00
1291.00	10102.00
1292.00	10052.00
1293.00	10099.00
1294.00	9709.00
