Date:	2023-09-18		
Time:	19:35		
Sample name:	Pellets		
Position:	163.600011	mm	
Sample surface:	5.995701	cm	
Tube anode:	Mo		
Tube voltage:	30	kV	
Tube current:	50	mA	
Comments	not in position		
Gain	5.810000		
peaking_time	0.300000	m-sec	
trigger_threshold	30.000000	V	
mca_bin_width	2.000000	no:	
number_mca_channels	2048.000000	no:	
gap_time	0.100000	m-sec	
trigger_peaking_time	0.050000	m-sec	
livetime	17.234107	seconds	
runtime	20.000289	seconds	
input_count_rate	117976.699189	cps	
output_count_rate	101659.681018	cps	
triggers	2275666.000000	seconds	
events_in_run	2023607.000000	seconds	
channel	content		
 1.00	 0.00
 2.00	 0.00
 3.00	 0.00
 4.00	 0.00
 5.00	 0.00
 6.00	 0.00
 7.00	 0.00
 8.00	 0.00
 9.00	 0.00
10.00	 0.00
11.00	 0.00
12.00	 0.00
13.00	 0.00
14.00	 0.00
15.00	 0.00
16.00	 0.00
17.00	 0.00
18.00	 0.00
19.00	 0.00
20.00	 0.00
21.00	 0.00
22.00	 0.00
23.00	 0.00
24.00	 0.00
25.00	 0.00
26.00	 0.00
27.00	 0.00
28.00	 0.00
29.00	 0.00
30.00	 0.00
31.00	 0.00
32.00	 0.00
33.00	 3.00
34.00	 3.00
35.00	 5.00
36.00	10.00
37.00	17.00
38.00	25.00
39.00	29.00
40.00	29.00
41.00	46.00
42.00	63.00
43.00	85.00
44.00	99.00
45.00	112.00
46.00	137.00
47.00	166.00
48.00	190.00
49.00	202.00
50.00	211.00
51.00	226.00
52.00	262.00
53.00	263.00
54.00	261.00
55.00	321.00
56.00	297.00
57.00	305.00
58.00	341.00
59.00	303.00
60.00	310.00
61.00	332.00
62.00	333.00
63.00	309.00
64.00	362.00
65.00	342.00
66.00	344.00
67.00	375.00
68.00	351.00
69.00	353.00
70.00	340.00
71.00	358.00
72.00	340.00
73.00	387.00
74.00	358.00
75.00	379.00
76.00	370.00
77.00	363.00
78.00	369.00
79.00	347.00
80.00	366.00
81.00	321.00
82.00	327.00
83.00	349.00
84.00	314.00
85.00	366.00
86.00	343.00
87.00	300.00
88.00	354.00
89.00	362.00
90.00	319.00
91.00	322.00
92.00	356.00
93.00	314.00
94.00	354.00
95.00	333.00
96.00	294.00
97.00	291.00
98.00	323.00
99.00	269.00
100.00	279.00
101.00	278.00
102.00	296.00
103.00	262.00
104.00	308.00
105.00	289.00
106.00	288.00
107.00	304.00
108.00	293.00
109.00	267.00
110.00	249.00
111.00	244.00
112.00	247.00
113.00	257.00
114.00	261.00
115.00	268.00
116.00	266.00
117.00	286.00
118.00	246.00
119.00	281.00
120.00	247.00
121.00	274.00
122.00	289.00
123.00	240.00
124.00	213.00
125.00	231.00
126.00	226.00
127.00	228.00
128.00	214.00
129.00	212.00
130.00	220.00
131.00	228.00
132.00	206.00
133.00	223.00
134.00	201.00
135.00	237.00
136.00	213.00
137.00	260.00
138.00	345.00
139.00	453.00
140.00	560.00
141.00	737.00
142.00	836.00
143.00	1010.00
144.00	1118.00
145.00	1077.00
146.00	1071.00
147.00	1004.00
148.00	827.00
149.00	732.00
150.00	669.00
151.00	602.00
152.00	595.00
153.00	538.00
154.00	535.00
155.00	429.00
156.00	425.00
157.00	368.00
158.00	441.00
159.00	567.00
160.00	791.00
161.00	1455.00
162.00	2363.00
163.00	3700.00
164.00	5497.00
165.00	8022.00
166.00	10228.00
167.00	12535.00
168.00	14294.00
169.00	14426.00
170.00	14281.00
171.00	12799.00
172.00	10579.00
173.00	8314.00
174.00	6263.00
175.00	4435.00
176.00	3066.00
177.00	2192.00
178.00	1576.00
179.00	1281.00
180.00	960.00
181.00	800.00
182.00	607.00
183.00	615.00
184.00	515.00
185.00	522.00
186.00	500.00
187.00	621.00
188.00	589.00
189.00	618.00
190.00	604.00
191.00	572.00
192.00	567.00
193.00	519.00
194.00	465.00
195.00	473.00
196.00	404.00
197.00	404.00
198.00	340.00
199.00	266.00
200.00	272.00
201.00	234.00
202.00	248.00
203.00	196.00
204.00	173.00
205.00	190.00
206.00	189.00
207.00	186.00
208.00	187.00
209.00	215.00
210.00	173.00
211.00	181.00
212.00	184.00
213.00	198.00
214.00	207.00
215.00	197.00
216.00	202.00
217.00	221.00
218.00	252.00
219.00	250.00
220.00	256.00
221.00	257.00
222.00	262.00
223.00	291.00
224.00	257.00
225.00	269.00
226.00	215.00
227.00	256.00
228.00	217.00
229.00	221.00
230.00	181.00
231.00	202.00
232.00	149.00
233.00	194.00
234.00	166.00
235.00	180.00
236.00	183.00
237.00	167.00
238.00	174.00
239.00	158.00
240.00	173.00
241.00	152.00
242.00	174.00
243.00	189.00
244.00	186.00
245.00	170.00
246.00	169.00
247.00	166.00
248.00	182.00
249.00	168.00
250.00	159.00
251.00	165.00
252.00	172.00
253.00	196.00
254.00	160.00
255.00	168.00
256.00	204.00
257.00	219.00
258.00	193.00
259.00	168.00
260.00	203.00
261.00	192.00
262.00	220.00
263.00	219.00
264.00	241.00
265.00	252.00
266.00	264.00
267.00	294.00
268.00	316.00
269.00	280.00
270.00	281.00
271.00	280.00
272.00	241.00
273.00	239.00
274.00	240.00
275.00	241.00
276.00	262.00
277.00	329.00
278.00	406.00
279.00	513.00
280.00	742.00
281.00	991.00
282.00	1230.00
283.00	1534.00
284.00	1753.00
285.00	2089.00
286.00	2152.00
287.00	2204.00
288.00	2111.00
289.00	1892.00
290.00	1695.00
291.00	1402.00
292.00	1052.00
293.00	844.00
294.00	654.00
295.00	525.00
296.00	382.00
297.00	310.00
298.00	268.00
299.00	237.00
300.00	266.00
301.00	269.00
302.00	290.00
303.00	330.00
304.00	358.00
305.00	410.00
306.00	495.00
307.00	571.00
308.00	720.00
309.00	1040.00
310.00	1284.00
311.00	1910.00
312.00	2762.00
313.00	3993.00
314.00	5711.00
315.00	7809.00
316.00	10420.00
317.00	13165.00
318.00	15924.00
319.00	18198.00
320.00	19690.00
321.00	20199.00
322.00	20223.00
323.00	18896.00
324.00	16431.00
325.00	13973.00
326.00	11316.00
327.00	8640.00
328.00	6296.00
329.00	4258.00
330.00	2930.00
331.00	1934.00
332.00	1290.00
333.00	830.00
334.00	599.00
335.00	521.00
336.00	489.00
337.00	492.00
338.00	645.00
339.00	780.00
340.00	1057.00
341.00	1313.00
342.00	1726.00
343.00	2240.00
344.00	2721.00
345.00	3453.00
346.00	4266.00
347.00	5516.00
348.00	6746.00
349.00	8823.00
350.00	11192.00
351.00	14375.00
352.00	18085.00
353.00	21762.00
354.00	25625.00
355.00	28684.00
356.00	31642.00
357.00	32781.00
358.00	32714.00
359.00	31218.00
360.00	28021.00
361.00	24661.00
362.00	20259.00
363.00	15969.00
364.00	12126.00
365.00	8619.00
366.00	6294.00
367.00	4205.00
368.00	2631.00
369.00	1725.00
370.00	1087.00
371.00	798.00
372.00	547.00
373.00	459.00
374.00	459.00
375.00	472.00
376.00	530.00
377.00	645.00
378.00	843.00
379.00	1044.00
380.00	1322.00
381.00	1794.00
382.00	2251.00
383.00	2825.00
384.00	3380.00
385.00	3882.00
386.00	4389.00
387.00	4885.00
388.00	5060.00
389.00	5073.00
390.00	4785.00
391.00	4544.00
392.00	3984.00
393.00	3384.00
394.00	2795.00
395.00	2249.00
396.00	1754.00
397.00	1374.00
398.00	1054.00
399.00	777.00
400.00	598.00
401.00	546.00
402.00	456.00
403.00	390.00
404.00	398.00
405.00	349.00
406.00	342.00
407.00	304.00
408.00	297.00
409.00	311.00
410.00	314.00
411.00	375.00
412.00	302.00
413.00	329.00
414.00	344.00
415.00	345.00
416.00	378.00
417.00	393.00
418.00	453.00
419.00	475.00
420.00	517.00
421.00	591.00
422.00	790.00
423.00	995.00
424.00	1339.00
425.00	1978.00
426.00	2617.00
427.00	3487.00
428.00	4747.00
429.00	6176.00
430.00	7792.00
431.00	9760.00
432.00	11609.00
433.00	13205.00
434.00	14520.00
435.00	15517.00
436.00	15900.00
437.00	15683.00
438.00	15003.00
439.00	13544.00
440.00	12204.00
441.00	10593.00
442.00	8791.00
443.00	7154.00
444.00	5893.00
445.00	4817.00
446.00	4038.00
447.00	3537.00
448.00	3141.00
449.00	2869.00
450.00	2660.00
451.00	2514.00
452.00	2354.00
453.00	2105.00
454.00	1921.00
455.00	1783.00
456.00	1605.00
457.00	1419.00
458.00	1330.00
459.00	1252.00
460.00	1281.00
461.00	1353.00
462.00	1364.00
463.00	1571.00
464.00	1662.00
465.00	1919.00
466.00	2099.00
467.00	2280.00
468.00	2480.00
469.00	2703.00
470.00	2916.00
471.00	3243.00
472.00	3509.00
473.00	3712.00
474.00	3895.00
475.00	4103.00
476.00	4176.00
477.00	4268.00
478.00	4175.00
479.00	3917.00
480.00	3806.00
481.00	3457.00
482.00	3001.00
483.00	2603.00
484.00	2271.00
485.00	1902.00
486.00	1556.00
487.00	1341.00
488.00	1221.00
489.00	1076.00
490.00	1029.00
491.00	956.00
492.00	884.00
493.00	962.00
494.00	967.00
495.00	934.00
496.00	1017.00
497.00	1058.00
498.00	1120.00
499.00	1148.00
500.00	1158.00
501.00	1144.00
502.00	1224.00
503.00	1311.00
504.00	1315.00
505.00	1340.00
506.00	1357.00
507.00	1379.00
508.00	1420.00
509.00	1514.00
510.00	1402.00
511.00	1592.00
512.00	1650.00
513.00	1669.00
514.00	1817.00
515.00	1856.00
516.00	2089.00
517.00	2186.00
518.00	2256.00
519.00	2482.00
520.00	2630.00
521.00	2734.00
522.00	2818.00
523.00	2945.00
524.00	2918.00
525.00	2915.00
526.00	2644.00
527.00	2523.00
528.00	2524.00
529.00	2312.00
530.00	2164.00
531.00	2124.00
532.00	1966.00
533.00	1847.00
534.00	1764.00
535.00	1802.00
536.00	1786.00
537.00	1748.00
538.00	1760.00
539.00	1769.00
540.00	1697.00
541.00	1869.00
542.00	1772.00
543.00	1809.00
544.00	1786.00
545.00	1941.00
546.00	1849.00
547.00	1823.00
548.00	1821.00
549.00	1920.00
550.00	1932.00
551.00	1878.00
552.00	2004.00
553.00	2165.00
554.00	2205.00
555.00	2492.00
556.00	2904.00
557.00	3515.00
558.00	4342.00
559.00	5484.00
560.00	6739.00
561.00	8753.00
562.00	10678.00
563.00	13183.00
564.00	16204.00
565.00	18476.00
566.00	21056.00
567.00	23412.00
568.00	25059.00
569.00	26260.00
570.00	26466.00
571.00	25838.00
572.00	24444.00
573.00	22636.00
574.00	20261.00
575.00	17661.00
576.00	15114.00
577.00	12485.00
578.00	9857.00
579.00	7956.00
580.00	6429.00
581.00	4968.00
582.00	4070.00
583.00	3377.00
584.00	2861.00
585.00	2505.00
586.00	2383.00
587.00	2347.00
588.00	2310.00
589.00	2402.00
590.00	2419.00
591.00	2544.00
592.00	2640.00
593.00	2730.00
594.00	2958.00
595.00	3161.00
596.00	3471.00
597.00	3750.00
598.00	4595.00
599.00	5598.00
600.00	6988.00
601.00	9272.00
602.00	13052.00
603.00	18090.00
604.00	25981.00
605.00	36682.00
606.00	51630.00
607.00	71596.00
608.00	98662.00
609.00	130702.00
610.00	169696.00
611.00	212578.00
612.00	263288.00
613.00	313183.00
614.00	363098.00
615.00	407465.00
616.00	445370.00
617.00	473189.00
618.00	484832.00
619.00	484974.00
620.00	470334.00
621.00	441058.00
622.00	402479.00
623.00	356304.00
624.00	305175.00
625.00	255395.00
626.00	206555.00
627.00	162662.00
628.00	124569.00
629.00	93448.00
630.00	68089.00
631.00	49211.00
632.00	34634.00
633.00	24483.00
634.00	17043.00
635.00	12029.00
636.00	8940.00
637.00	6633.00
638.00	5333.00
639.00	4631.00
640.00	3948.00
641.00	3637.00
642.00	3462.00
643.00	3488.00
644.00	3446.00
645.00	3502.00
646.00	3363.00
647.00	3351.00
648.00	3422.00
649.00	3537.00
650.00	3614.00
651.00	3622.00
652.00	3635.00
653.00	3635.00
654.00	3734.00
655.00	3981.00
656.00	3986.00
657.00	4178.00
658.00	4447.00
659.00	4534.00
660.00	4748.00
661.00	5076.00
662.00	5274.00
663.00	5812.00
664.00	6574.00
665.00	7223.00
666.00	8398.00
667.00	9924.00
668.00	11741.00
669.00	14493.00
670.00	17806.00
671.00	21819.00
672.00	26931.00
673.00	32822.00
674.00	39235.00
675.00	46302.00
676.00	53100.00
677.00	60553.00
678.00	66989.00
679.00	71707.00
680.00	76033.00
681.00	78610.00
682.00	78395.00
683.00	75680.00
684.00	71868.00
685.00	66440.00
686.00	59651.00
687.00	52251.00
688.00	44707.00
689.00	38039.00
690.00	30538.00
691.00	24567.00
692.00	19602.00
693.00	15251.00
694.00	11663.00
695.00	9207.00
696.00	7087.00
697.00	5651.00
698.00	4851.00
699.00	4041.00
700.00	3554.00
701.00	3482.00
702.00	3337.00
703.00	3244.00
704.00	3209.00
705.00	3150.00
706.00	3151.00
707.00	3354.00
708.00	3266.00
709.00	3467.00
710.00	3551.00
711.00	3700.00
712.00	3963.00
713.00	4007.00
714.00	4224.00
715.00	4566.00
716.00	4548.00
717.00	4957.00
718.00	5144.00
719.00	5448.00
720.00	5236.00
721.00	5340.00
722.00	5401.00
723.00	5268.00
724.00	5248.00
725.00	5156.00
726.00	4904.00
727.00	4701.00
728.00	4551.00
729.00	4404.00
730.00	4080.00
731.00	3965.00
732.00	3846.00
733.00	3743.00
734.00	3584.00
735.00	3500.00
736.00	3415.00
737.00	3491.00
738.00	3326.00
739.00	3365.00
740.00	3254.00
741.00	3313.00
742.00	3072.00
743.00	3136.00
744.00	3038.00
745.00	3056.00
746.00	3010.00
747.00	3102.00
748.00	3099.00
749.00	3047.00
750.00	3104.00
751.00	3082.00
752.00	3002.00
753.00	3037.00
754.00	3096.00
755.00	3076.00
756.00	3134.00
757.00	3198.00
758.00	3238.00
759.00	3277.00
760.00	3368.00
761.00	3374.00
762.00	3385.00
763.00	3506.00
764.00	3701.00
765.00	3819.00
766.00	3889.00
767.00	4025.00
768.00	4094.00
769.00	4416.00
770.00	4597.00
771.00	4773.00
772.00	4932.00
773.00	5022.00
774.00	5104.00
775.00	5159.00
776.00	5180.00
777.00	5322.00
778.00	5515.00
779.00	5434.00
780.00	5539.00
781.00	5433.00
782.00	5383.00
783.00	5347.00
784.00	5350.00
785.00	5249.00
786.00	5083.00
787.00	5237.00
788.00	4933.00
789.00	5127.00
790.00	5134.00
791.00	5045.00
792.00	5237.00
793.00	5201.00
794.00	5336.00
795.00	5341.00
796.00	5304.00
797.00	5438.00
798.00	5278.00
799.00	5510.00
800.00	5176.00
801.00	5327.00
802.00	5470.00
803.00	5547.00
804.00	5486.00
805.00	5394.00
806.00	5411.00
807.00	5563.00
808.00	5482.00
809.00	5356.00
810.00	5360.00
811.00	5411.00
812.00	5367.00
813.00	5433.00
814.00	5359.00
815.00	5469.00
816.00	5453.00
817.00	5502.00
818.00	5512.00
819.00	5676.00
820.00	5739.00
821.00	5930.00
822.00	6303.00
823.00	6511.00
824.00	6949.00
825.00	7390.00
826.00	7761.00
827.00	8269.00
828.00	8950.00
829.00	9337.00
830.00	9424.00
831.00	9938.00
832.00	10204.00
833.00	10392.00
834.00	10385.00
835.00	10185.00
836.00	9899.00
837.00	9531.00
838.00	9179.00
839.00	8476.00
840.00	8200.00
841.00	7663.00
842.00	7321.00
843.00	6973.00
844.00	6485.00
845.00	6282.00
846.00	6020.00
847.00	5824.00
848.00	5733.00
849.00	5452.00
850.00	5462.00
851.00	5489.00
852.00	5246.00
853.00	5499.00
854.00	5538.00
855.00	5583.00
856.00	5473.00
857.00	5569.00
858.00	5567.00
859.00	5682.00
860.00	5361.00
861.00	5454.00
862.00	5541.00
863.00	5529.00
864.00	5518.00
865.00	5667.00
866.00	5643.00
867.00	5578.00
868.00	5636.00
869.00	5665.00
870.00	5656.00
871.00	5646.00
872.00	5680.00
873.00	5703.00
874.00	5671.00
875.00	5753.00
876.00	5714.00
877.00	5836.00
878.00	5936.00
879.00	5881.00
880.00	6049.00
881.00	6061.00
882.00	6039.00
883.00	6143.00
884.00	6290.00
885.00	6481.00
886.00	6474.00
887.00	6398.00
888.00	6521.00
889.00	6607.00
890.00	6705.00
891.00	6598.00
892.00	6746.00
893.00	6670.00
894.00	6614.00
895.00	6640.00
896.00	6751.00
897.00	6508.00
898.00	6661.00
899.00	6621.00
900.00	6816.00
901.00	6568.00
902.00	6629.00
903.00	6521.00
904.00	6600.00
905.00	6570.00
906.00	6625.00
907.00	6890.00
908.00	6725.00
909.00	6632.00
910.00	6959.00
911.00	7036.00
912.00	7243.00
913.00	7351.00
914.00	7555.00
915.00	7677.00
916.00	7680.00
917.00	7892.00
918.00	8102.00
919.00	8195.00
920.00	8135.00
921.00	8396.00
922.00	8488.00
923.00	8434.00
924.00	8549.00
925.00	8459.00
926.00	8359.00
927.00	8230.00
928.00	8227.00
929.00	8071.00
930.00	7959.00
931.00	7921.00
932.00	7727.00
933.00	7494.00
934.00	7479.00
935.00	7467.00
936.00	7403.00
937.00	7235.00
938.00	6978.00
939.00	7008.00
940.00	7036.00
941.00	6971.00
942.00	6896.00
943.00	6956.00
944.00	6808.00
945.00	6744.00
946.00	6788.00
947.00	6751.00
948.00	6833.00
949.00	6897.00
950.00	6731.00
951.00	6670.00
952.00	6647.00
953.00	6727.00
954.00	6850.00
955.00	6808.00
956.00	6856.00
957.00	6803.00
958.00	6890.00
959.00	6978.00
960.00	6869.00
961.00	6889.00
962.00	6729.00
963.00	6914.00
964.00	6763.00
965.00	6881.00
966.00	6760.00
967.00	6899.00
968.00	6889.00
969.00	6876.00
970.00	6992.00
971.00	6999.00
972.00	6913.00
973.00	6828.00
974.00	7109.00
975.00	6809.00
976.00	6996.00
977.00	6894.00
978.00	6938.00
979.00	6976.00
980.00	6786.00
981.00	7074.00
982.00	6935.00
983.00	6921.00
984.00	7058.00
985.00	6999.00
986.00	6923.00
987.00	7031.00
988.00	7123.00
989.00	7007.00
990.00	7082.00
991.00	7100.00
992.00	7133.00
993.00	6983.00
994.00	7172.00
995.00	7047.00
996.00	6943.00
997.00	6968.00
998.00	7054.00
999.00	7050.00
1000.00	7030.00
1001.00	7247.00
1002.00	7087.00
1003.00	7056.00
1004.00	7141.00
1005.00	7179.00
1006.00	7274.00
1007.00	7130.00
1008.00	7143.00
1009.00	7260.00
1010.00	7586.00
1011.00	7423.00
1012.00	7582.00
1013.00	7563.00
1014.00	7730.00
1015.00	7635.00
1016.00	7662.00
1017.00	7693.00
1018.00	7720.00
1019.00	7572.00
1020.00	7530.00
1021.00	7522.00
1022.00	7651.00
1023.00	7353.00
1024.00	7359.00
1025.00	7145.00
1026.00	7307.00
1027.00	7231.00
1028.00	7078.00
1029.00	7169.00
1030.00	7017.00
1031.00	6899.00
1032.00	6999.00
1033.00	6978.00
1034.00	6928.00
1035.00	7072.00
1036.00	6931.00
1037.00	7115.00
1038.00	7036.00
1039.00	7157.00
1040.00	7098.00
1041.00	7171.00
1042.00	7010.00
1043.00	7008.00
1044.00	7030.00
1045.00	7063.00
1046.00	7035.00
1047.00	7168.00
1048.00	7224.00
1049.00	7203.00
1050.00	7096.00
1051.00	7305.00
1052.00	7112.00
1053.00	7234.00
1054.00	7102.00
1055.00	7206.00
1056.00	7188.00
1057.00	7004.00
1058.00	7149.00
1059.00	7215.00
1060.00	7362.00
1061.00	7274.00
1062.00	7300.00
1063.00	7425.00
1064.00	7302.00
1065.00	7375.00
1066.00	7198.00
1067.00	7369.00
1068.00	7347.00
1069.00	7364.00
1070.00	7461.00
1071.00	7397.00
1072.00	7335.00
1073.00	7382.00
1074.00	7451.00
1075.00	7438.00
1076.00	7463.00
1077.00	7405.00
1078.00	7565.00
1079.00	7444.00
1080.00	7414.00
1081.00	7538.00
1082.00	7358.00
1083.00	7466.00
1084.00	7606.00
1085.00	7407.00
1086.00	7635.00
1087.00	7624.00
1088.00	7633.00
1089.00	7548.00
1090.00	7458.00
1091.00	7598.00
1092.00	7659.00
1093.00	7607.00
1094.00	7664.00
1095.00	7622.00
1096.00	7652.00
1097.00	7655.00
1098.00	7652.00
1099.00	7719.00
1100.00	7728.00
1101.00	7542.00
1102.00	7625.00
1103.00	7685.00
1104.00	7701.00
1105.00	7797.00
1106.00	7696.00
1107.00	7698.00
1108.00	7608.00
1109.00	7619.00
1110.00	7657.00
1111.00	7731.00
1112.00	7751.00
1113.00	7510.00
1114.00	7668.00
1115.00	7653.00
1116.00	7674.00
1117.00	7603.00
1118.00	7646.00
1119.00	7749.00
1120.00	7607.00
1121.00	7607.00
1122.00	7808.00
1123.00	7480.00
1124.00	7555.00
1125.00	7418.00
1126.00	7609.00
1127.00	7382.00
1128.00	7525.00
1129.00	7656.00
1130.00	7574.00
1131.00	7582.00
1132.00	7497.00
1133.00	7668.00
1134.00	7651.00
1135.00	7587.00
1136.00	7586.00
1137.00	7705.00
1138.00	7741.00
1139.00	7730.00
1140.00	7726.00
1141.00	7789.00
1142.00	7559.00
1143.00	7741.00
1144.00	7805.00
1145.00	7606.00
1146.00	7614.00
1147.00	7547.00
1148.00	7820.00
1149.00	7670.00
1150.00	7672.00
1151.00	7672.00
1152.00	7757.00
1153.00	7713.00
1154.00	7763.00
1155.00	7678.00
1156.00	7592.00
1157.00	7391.00
1158.00	7642.00
1159.00	7519.00
1160.00	7420.00
1161.00	7541.00
1162.00	7417.00
1163.00	7566.00
1164.00	7443.00
1165.00	7462.00
1166.00	7619.00
1167.00	7487.00
1168.00	7498.00
1169.00	7385.00
1170.00	7373.00
1171.00	7439.00
1172.00	7516.00
1173.00	7557.00
1174.00	7547.00
1175.00	7532.00
1176.00	7634.00
1177.00	7521.00
1178.00	7710.00
1179.00	7585.00
1180.00	7659.00
1181.00	7588.00
1182.00	7744.00
1183.00	7431.00
1184.00	7629.00
1185.00	7636.00
1186.00	7626.00
1187.00	7623.00
1188.00	7563.00
1189.00	7571.00
1190.00	7564.00
1191.00	7535.00
1192.00	7758.00
1193.00	7757.00
1194.00	7595.00
1195.00	7743.00
1196.00	7566.00
1197.00	7772.00
1198.00	7581.00
1199.00	7557.00
1200.00	7492.00
1201.00	7567.00
1202.00	7678.00
1203.00	7763.00
1204.00	7614.00
1205.00	7744.00
1206.00	7618.00
1207.00	7717.00
1208.00	7794.00
1209.00	7881.00
1210.00	7863.00
1211.00	8079.00
1212.00	7865.00
1213.00	7888.00
1214.00	8068.00
1215.00	8093.00
1216.00	8002.00
1217.00	8041.00
1218.00	8306.00
1219.00	8193.00
1220.00	8141.00
1221.00	8185.00
1222.00	8238.00
1223.00	8180.00
1224.00	8329.00
1225.00	8298.00
1226.00	8376.00
1227.00	8457.00
1228.00	8558.00
1229.00	8555.00
1230.00	8553.00
1231.00	8708.00
1232.00	8879.00
1233.00	8693.00
1234.00	8545.00
1235.00	8599.00
1236.00	8859.00
1237.00	8661.00
1238.00	8520.00
1239.00	8426.00
1240.00	8466.00
1241.00	8302.00
1242.00	8406.00
1243.00	8177.00
1244.00	8319.00
1245.00	8106.00
1246.00	8120.00
1247.00	7993.00
1248.00	7892.00
1249.00	7921.00
1250.00	7695.00
1251.00	7888.00
1252.00	7770.00
1253.00	7564.00
1254.00	7681.00
1255.00	7742.00
1256.00	7719.00
1257.00	7820.00
1258.00	7703.00
1259.00	7773.00
1260.00	7862.00
1261.00	7789.00
1262.00	7974.00
1263.00	7742.00
1264.00	7725.00
1265.00	7844.00
1266.00	7674.00
1267.00	7787.00
1268.00	7801.00
1269.00	7802.00
1270.00	7797.00
1271.00	7981.00
1272.00	7733.00
1273.00	7837.00
1274.00	7859.00
1275.00	8040.00
1276.00	8088.00
1277.00	8271.00
1278.00	8098.00
1279.00	8410.00
1280.00	8583.00
1281.00	8570.00
1282.00	8855.00
1283.00	8808.00
1284.00	9208.00
1285.00	9249.00
1286.00	9169.00
1287.00	9398.00
1288.00	9465.00
1289.00	9484.00
1290.00	9699.00
1291.00	9332.00
1292.00	9396.00
1293.00	9563.00
