Date:	2023-09-18		
Time:	21:33		
Sample name:	Pellets		
Position:	1352.600011	mm	
Sample surface:	5.963335	cm	
Tube anode:	Mo		
Tube voltage:	30	kV	
Tube current:	50	mA	
Comments	not in position		
Gain	5.810000		
peaking_time	0.300000	m-sec	
trigger_threshold	30.000000	V	
mca_bin_width	2.000000	no:	
number_mca_channels	2048.000000	no:	
gap_time	0.100000	m-sec	
trigger_peaking_time	0.050000	m-sec	
livetime	17.318662	seconds	
runtime	20.000395	seconds	
input_count_rate	122240.099103	cps	
output_count_rate	105849.656823	cps	
triggers	2362718.000000	seconds	
events_in_run	2108748.000000	seconds	
channel	content		
 1.00	 0.00
 2.00	 0.00
 3.00	 0.00
 4.00	 0.00
 5.00	 0.00
 6.00	 0.00
 7.00	 0.00
 8.00	 0.00
 9.00	 0.00
10.00	 0.00
11.00	 0.00
12.00	 0.00
13.00	 0.00
14.00	 0.00
15.00	 0.00
16.00	 0.00
17.00	 0.00
18.00	 0.00
19.00	 0.00
20.00	 0.00
21.00	 0.00
22.00	 0.00
23.00	 0.00
24.00	 0.00
25.00	 0.00
26.00	 0.00
27.00	 0.00
28.00	 0.00
29.00	 0.00
30.00	 0.00
31.00	 1.00
32.00	 2.00
33.00	 2.00
34.00	 5.00
35.00	 7.00
36.00	 2.00
37.00	13.00
38.00	13.00
39.00	33.00
40.00	36.00
41.00	46.00
42.00	64.00
43.00	68.00
44.00	83.00
45.00	112.00
46.00	144.00
47.00	158.00
48.00	182.00
49.00	215.00
50.00	198.00
51.00	231.00
52.00	233.00
53.00	275.00
54.00	289.00
55.00	278.00
56.00	313.00
57.00	290.00
58.00	337.00
59.00	326.00
60.00	292.00
61.00	311.00
62.00	331.00
63.00	325.00
64.00	340.00
65.00	323.00
66.00	329.00
67.00	375.00
68.00	340.00
69.00	363.00
70.00	372.00
71.00	360.00
72.00	383.00
73.00	365.00
74.00	344.00
75.00	304.00
76.00	350.00
77.00	394.00
78.00	343.00
79.00	385.00
80.00	371.00
81.00	351.00
82.00	350.00
83.00	352.00
84.00	346.00
85.00	345.00
86.00	362.00
87.00	337.00
88.00	372.00
89.00	356.00
90.00	324.00
91.00	323.00
92.00	314.00
93.00	290.00
94.00	315.00
95.00	339.00
96.00	342.00
97.00	319.00
98.00	333.00
99.00	318.00
100.00	305.00
101.00	286.00
102.00	283.00
103.00	319.00
104.00	306.00
105.00	342.00
106.00	283.00
107.00	288.00
108.00	279.00
109.00	288.00
110.00	281.00
111.00	275.00
112.00	288.00
113.00	265.00
114.00	278.00
115.00	282.00
116.00	279.00
117.00	288.00
118.00	320.00
119.00	309.00
120.00	280.00
121.00	274.00
122.00	269.00
123.00	265.00
124.00	246.00
125.00	249.00
126.00	229.00
127.00	242.00
128.00	251.00
129.00	276.00
130.00	229.00
131.00	236.00
132.00	252.00
133.00	241.00
134.00	265.00
135.00	255.00
136.00	275.00
137.00	332.00
138.00	392.00
139.00	487.00
140.00	613.00
141.00	750.00
142.00	978.00
143.00	1090.00
144.00	1161.00
145.00	1100.00
146.00	1166.00
147.00	968.00
148.00	913.00
149.00	753.00
150.00	723.00
151.00	657.00
152.00	651.00
153.00	596.00
154.00	509.00
155.00	477.00
156.00	454.00
157.00	412.00
158.00	473.00
159.00	519.00
160.00	793.00
161.00	1195.00
162.00	1923.00
163.00	2906.00
164.00	4282.00
165.00	6065.00
166.00	7924.00
167.00	9455.00
168.00	10623.00
169.00	10925.00
170.00	10761.00
171.00	9565.00
172.00	8110.00
173.00	6300.00
174.00	4668.00
175.00	3379.00
176.00	2505.00
177.00	1829.00
178.00	1440.00
179.00	1253.00
180.00	1190.00
181.00	1261.00
182.00	1490.00
183.00	1685.00
184.00	2182.00
185.00	2722.00
186.00	3308.00
187.00	3925.00
188.00	4311.00
189.00	4381.00
190.00	4228.00
191.00	3879.00
192.00	3432.00
193.00	2684.00
194.00	2021.00
195.00	1509.00
196.00	1119.00
197.00	811.00
198.00	585.00
199.00	436.00
200.00	417.00
201.00	301.00
202.00	324.00
203.00	341.00
204.00	342.00
205.00	295.00
206.00	319.00
207.00	313.00
208.00	323.00
209.00	303.00
210.00	337.00
211.00	357.00
212.00	369.00
213.00	409.00
214.00	469.00
215.00	530.00
216.00	630.00
217.00	636.00
218.00	737.00
219.00	757.00
220.00	829.00
221.00	876.00
222.00	764.00
223.00	732.00
224.00	662.00
225.00	577.00
226.00	535.00
227.00	408.00
228.00	385.00
229.00	327.00
230.00	333.00
231.00	267.00
232.00	270.00
233.00	258.00
234.00	252.00
235.00	257.00
236.00	249.00
237.00	257.00
238.00	286.00
239.00	290.00
240.00	259.00
241.00	278.00
242.00	279.00
243.00	272.00
244.00	264.00
245.00	270.00
246.00	257.00
247.00	270.00
248.00	253.00
249.00	299.00
250.00	273.00
251.00	284.00
252.00	276.00
253.00	254.00
254.00	263.00
255.00	301.00
256.00	298.00
257.00	303.00
258.00	301.00
259.00	304.00
260.00	290.00
261.00	292.00
262.00	308.00
263.00	312.00
264.00	363.00
265.00	361.00
266.00	371.00
267.00	338.00
268.00	334.00
269.00	363.00
270.00	347.00
271.00	401.00
272.00	380.00
273.00	350.00
274.00	356.00
275.00	354.00
276.00	405.00
277.00	444.00
278.00	595.00
279.00	681.00
280.00	877.00
281.00	1115.00
282.00	1391.00
283.00	1769.00
284.00	1997.00
285.00	2082.00
286.00	2361.00
287.00	2331.00
288.00	2373.00
289.00	2072.00
290.00	1860.00
291.00	1582.00
292.00	1342.00
293.00	1031.00
294.00	861.00
295.00	739.00
296.00	621.00
297.00	559.00
298.00	497.00
299.00	490.00
300.00	494.00
301.00	546.00
302.00	519.00
303.00	606.00
304.00	686.00
305.00	734.00
306.00	788.00
307.00	856.00
308.00	1106.00
309.00	1347.00
310.00	1729.00
311.00	2388.00
312.00	3284.00
313.00	4602.00
314.00	6471.00
315.00	8667.00
316.00	11453.00
317.00	14109.00
318.00	16911.00
319.00	19163.00
320.00	20973.00
321.00	21384.00
322.00	21226.00
323.00	19740.00
324.00	17444.00
325.00	14984.00
326.00	11835.00
327.00	9130.00
328.00	6750.00
329.00	4812.00
330.00	3210.00
331.00	2203.00
332.00	1615.00
333.00	1210.00
334.00	1062.00
335.00	982.00
336.00	979.00
337.00	1217.00
338.00	1481.00
339.00	1827.00
340.00	2414.00
341.00	3246.00
342.00	4262.00
343.00	6010.00
344.00	8955.00
345.00	13584.00
346.00	20397.00
347.00	31484.00
348.00	46754.00
349.00	69448.00
350.00	98092.00
351.00	134687.00
352.00	178073.00
353.00	224056.00
354.00	270076.00
355.00	309664.00
356.00	341890.00
357.00	357605.00
358.00	356321.00
359.00	339579.00
360.00	308302.00
361.00	266938.00
362.00	220723.00
363.00	173673.00
364.00	130682.00
365.00	93575.00
366.00	64411.00
367.00	42596.00
368.00	27190.00
369.00	16625.00
370.00	10339.00
371.00	6495.00
372.00	4374.00
373.00	3428.00
374.00	3037.00
375.00	3277.00
376.00	4019.00
377.00	5117.00
378.00	6948.00
379.00	9359.00
380.00	12841.00
381.00	16924.00
382.00	22306.00
383.00	28125.00
384.00	34594.00
385.00	41078.00
386.00	45985.00
387.00	50878.00
388.00	52920.00
389.00	52883.00
390.00	51343.00
391.00	46716.00
392.00	41033.00
393.00	34638.00
394.00	28085.00
395.00	21703.00
396.00	16104.00
397.00	11584.00
398.00	7917.00
399.00	5358.00
400.00	3433.00
401.00	2141.00
402.00	1441.00
403.00	980.00
404.00	696.00
405.00	496.00
406.00	391.00
407.00	349.00
408.00	377.00
409.00	276.00
410.00	292.00
411.00	307.00
412.00	308.00
413.00	312.00
414.00	339.00
415.00	341.00
416.00	329.00
417.00	326.00
418.00	340.00
419.00	398.00
420.00	444.00
421.00	472.00
422.00	541.00
423.00	789.00
424.00	988.00
425.00	1235.00
426.00	1717.00
427.00	2330.00
428.00	3153.00
429.00	3983.00
430.00	5238.00
431.00	6306.00
432.00	7500.00
433.00	8596.00
434.00	9704.00
435.00	10393.00
436.00	10720.00
437.00	10503.00
438.00	10116.00
439.00	9265.00
440.00	8267.00
441.00	7073.00
442.00	6061.00
443.00	4826.00
444.00	3864.00
445.00	3386.00
446.00	2775.00
447.00	2405.00
448.00	2198.00
449.00	1992.00
450.00	1966.00
451.00	1761.00
452.00	1752.00
453.00	1547.00
454.00	1359.00
455.00	1283.00
456.00	1119.00
457.00	954.00
458.00	1005.00
459.00	803.00
460.00	869.00
461.00	789.00
462.00	846.00
463.00	953.00
464.00	961.00
465.00	1076.00
466.00	1092.00
467.00	1284.00
468.00	1349.00
469.00	1554.00
470.00	1696.00
471.00	1900.00
472.00	2193.00
473.00	2286.00
474.00	2475.00
475.00	2705.00
476.00	2792.00
477.00	2733.00
478.00	2746.00
479.00	2767.00
480.00	2614.00
481.00	2387.00
482.00	2037.00
483.00	1832.00
484.00	1547.00
485.00	1361.00
486.00	1136.00
487.00	1035.00
488.00	905.00
489.00	779.00
490.00	752.00
491.00	724.00
492.00	740.00
493.00	720.00
494.00	653.00
495.00	670.00
496.00	651.00
497.00	709.00
498.00	811.00
499.00	765.00
500.00	820.00
501.00	849.00
502.00	887.00
503.00	862.00
504.00	907.00
505.00	978.00
506.00	982.00
507.00	979.00
508.00	1056.00
509.00	1036.00
510.00	1037.00
511.00	1111.00
512.00	1164.00
513.00	1184.00
514.00	1258.00
515.00	1326.00
516.00	1352.00
517.00	1455.00
518.00	1577.00
519.00	1694.00
520.00	1820.00
521.00	1772.00
522.00	1949.00
523.00	1909.00
524.00	1949.00
525.00	1929.00
526.00	1765.00
527.00	1766.00
528.00	1633.00
529.00	1557.00
530.00	1575.00
531.00	1425.00
532.00	1327.00
533.00	1255.00
534.00	1261.00
535.00	1261.00
536.00	1207.00
537.00	1267.00
538.00	1180.00
539.00	1278.00
540.00	1210.00
541.00	1262.00
542.00	1256.00
543.00	1357.00
544.00	1299.00
545.00	1321.00
546.00	1333.00
547.00	1368.00
548.00	1491.00
549.00	1382.00
550.00	1472.00
551.00	1480.00
552.00	1560.00
553.00	1600.00
554.00	1682.00
555.00	1826.00
556.00	2148.00
557.00	2406.00
558.00	2863.00
559.00	3433.00
560.00	4213.00
561.00	5288.00
562.00	6344.00
563.00	7799.00
564.00	9103.00
565.00	10739.00
566.00	12114.00
567.00	13289.00
568.00	14220.00
569.00	14710.00
570.00	14940.00
571.00	14225.00
572.00	13799.00
573.00	12782.00
574.00	11505.00
575.00	9865.00
576.00	8310.00
577.00	7033.00
578.00	5766.00
579.00	4804.00
580.00	3726.00
581.00	3032.00
582.00	2600.00
583.00	2122.00
584.00	1832.00
585.00	1776.00
586.00	1737.00
587.00	1629.00
588.00	1662.00
589.00	1666.00
590.00	1726.00
591.00	1755.00
592.00	1844.00
593.00	1935.00
594.00	2017.00
595.00	2344.00
596.00	2438.00
597.00	2738.00
598.00	3238.00
599.00	3851.00
600.00	4994.00
601.00	6629.00
602.00	9174.00
603.00	12558.00
604.00	17955.00
605.00	26044.00
606.00	35675.00
607.00	50464.00
608.00	68493.00
609.00	90425.00
610.00	118259.00
611.00	148036.00
612.00	181344.00
613.00	215242.00
614.00	250364.00
615.00	280846.00
616.00	306399.00
617.00	325046.00
618.00	332036.00
619.00	331083.00
620.00	320197.00
621.00	301071.00
622.00	273731.00
623.00	241345.00
624.00	207413.00
625.00	172839.00
626.00	139418.00
627.00	110578.00
628.00	83976.00
629.00	62678.00
630.00	46405.00
631.00	33092.00
632.00	23395.00
633.00	16489.00
634.00	11561.00
635.00	8308.00
636.00	6251.00
637.00	4849.00
638.00	3963.00
639.00	3420.00
640.00	3065.00
641.00	2946.00
642.00	2812.00
643.00	2812.00
644.00	2632.00
645.00	2597.00
646.00	2663.00
647.00	2593.00
648.00	2713.00
649.00	2782.00
650.00	2854.00
651.00	2830.00
652.00	2913.00
653.00	3017.00
654.00	2937.00
655.00	3180.00
656.00	3170.00
657.00	3325.00
658.00	3415.00
659.00	3659.00
660.00	3740.00
661.00	3923.00
662.00	4194.00
663.00	4617.00
664.00	4951.00
665.00	5668.00
666.00	6438.00
667.00	7351.00
668.00	8793.00
669.00	10451.00
670.00	12992.00
671.00	15687.00
672.00	19231.00
673.00	23126.00
674.00	27589.00
675.00	32692.00
676.00	37510.00
677.00	41929.00
678.00	46526.00
679.00	49689.00
680.00	52639.00
681.00	53441.00
682.00	53279.00
683.00	51684.00
684.00	49288.00
685.00	45277.00
686.00	40788.00
687.00	36310.00
688.00	30632.00
689.00	25955.00
690.00	21424.00
691.00	17110.00
692.00	13729.00
693.00	10892.00
694.00	8464.00
695.00	6669.00
696.00	5260.00
697.00	4491.00
698.00	3723.00
699.00	3254.00
700.00	3064.00
701.00	2911.00
702.00	2800.00
703.00	2715.00
704.00	2706.00
705.00	2942.00
706.00	2940.00
707.00	2911.00
708.00	3131.00
709.00	3191.00
710.00	3340.00
711.00	3491.00
712.00	3629.00
713.00	3794.00
714.00	3866.00
715.00	4093.00
716.00	4110.00
717.00	4297.00
718.00	4399.00
719.00	4411.00
720.00	4474.00
721.00	4386.00
722.00	4455.00
723.00	4400.00
724.00	4172.00
725.00	4216.00
726.00	4065.00
727.00	3841.00
728.00	3696.00
729.00	3646.00
730.00	3422.00
731.00	3240.00
732.00	3038.00
733.00	3053.00
734.00	2990.00
735.00	2901.00
736.00	2882.00
737.00	2825.00
738.00	2809.00
739.00	2811.00
740.00	2849.00
741.00	2747.00
742.00	2689.00
743.00	2853.00
744.00	2648.00
745.00	2739.00
746.00	2796.00
747.00	2728.00
748.00	2627.00
749.00	2764.00
750.00	2663.00
751.00	2742.00
752.00	2709.00
753.00	2679.00
754.00	2739.00
755.00	2724.00
756.00	2829.00
757.00	2845.00
758.00	2662.00
759.00	2858.00
760.00	2796.00
761.00	2965.00
762.00	2989.00
763.00	2985.00
764.00	3029.00
765.00	3052.00
766.00	3336.00
767.00	3342.00
768.00	3522.00
769.00	3596.00
770.00	3701.00
771.00	3874.00
772.00	3860.00
773.00	4062.00
774.00	4121.00
775.00	4231.00
776.00	4191.00
777.00	4364.00
778.00	4207.00
779.00	4295.00
780.00	4318.00
781.00	4101.00
782.00	4035.00
783.00	4172.00
784.00	4076.00
785.00	4042.00
786.00	4102.00
787.00	4120.00
788.00	4175.00
789.00	4023.00
790.00	4036.00
791.00	4080.00
792.00	4031.00
793.00	4248.00
794.00	4349.00
795.00	4247.00
796.00	4350.00
797.00	4315.00
798.00	4429.00
799.00	4448.00
800.00	4523.00
801.00	4622.00
802.00	4614.00
803.00	4551.00
804.00	4688.00
805.00	4720.00
806.00	4695.00
807.00	4699.00
808.00	4813.00
809.00	4805.00
810.00	4790.00
811.00	4756.00
812.00	4938.00
813.00	4849.00
814.00	4848.00
815.00	4776.00
816.00	4851.00
817.00	4785.00
818.00	4816.00
819.00	4923.00
820.00	4860.00
821.00	5000.00
822.00	5120.00
823.00	5292.00
824.00	5620.00
825.00	5718.00
826.00	5919.00
827.00	6120.00
828.00	6341.00
829.00	6618.00
830.00	6846.00
831.00	7006.00
832.00	7016.00
833.00	6999.00
834.00	7067.00
835.00	6928.00
836.00	6822.00
837.00	6785.00
838.00	6594.00
839.00	6280.00
840.00	6092.00
841.00	5806.00
842.00	5776.00
843.00	5522.00
844.00	5373.00
845.00	5071.00
846.00	4989.00
847.00	5013.00
848.00	4731.00
849.00	4794.00
850.00	4795.00
851.00	4788.00
852.00	4650.00
853.00	4799.00
854.00	4781.00
855.00	4805.00
856.00	4800.00
857.00	4732.00
858.00	4869.00
859.00	4857.00
860.00	4850.00
861.00	4808.00
862.00	4795.00
863.00	4866.00
864.00	4856.00
865.00	4649.00
866.00	4803.00
867.00	4761.00
868.00	4767.00
869.00	4712.00
870.00	4613.00
871.00	4661.00
872.00	4712.00
873.00	4567.00
874.00	4747.00
875.00	4695.00
876.00	4774.00
877.00	4884.00
878.00	4793.00
879.00	5003.00
880.00	4923.00
881.00	4967.00
882.00	5077.00
883.00	5019.00
884.00	5081.00
885.00	5135.00
886.00	5233.00
887.00	5180.00
888.00	5306.00
889.00	5329.00
890.00	5379.00
891.00	5294.00
892.00	5459.00
893.00	5474.00
894.00	5429.00
895.00	5456.00
896.00	5422.00
897.00	5352.00
898.00	5363.00
899.00	5521.00
900.00	5577.00
901.00	5458.00
902.00	5459.00
903.00	5450.00
904.00	5507.00
905.00	5618.00
906.00	5499.00
907.00	5550.00
908.00	5579.00
909.00	5545.00
910.00	5625.00
911.00	5672.00
912.00	5647.00
913.00	5600.00
914.00	5734.00
915.00	5822.00
916.00	5885.00
917.00	5969.00
918.00	5970.00
919.00	6091.00
920.00	6072.00
921.00	6176.00
922.00	6173.00
923.00	6290.00
924.00	6166.00
925.00	6285.00
926.00	6214.00
927.00	6257.00
928.00	6380.00
929.00	6275.00
930.00	6291.00
931.00	6335.00
932.00	6137.00
933.00	6199.00
934.00	6026.00
935.00	6236.00
936.00	6055.00
937.00	6054.00
938.00	6100.00
939.00	6000.00
940.00	5773.00
941.00	6018.00
942.00	6008.00
943.00	5935.00
944.00	6032.00
945.00	5998.00
946.00	5956.00
947.00	6004.00
948.00	6002.00
949.00	5837.00
950.00	5858.00
951.00	5923.00
952.00	5960.00
953.00	5808.00
954.00	5824.00
955.00	5913.00
956.00	5903.00
957.00	6061.00
958.00	5939.00
959.00	6006.00
960.00	6040.00
961.00	6214.00
962.00	6217.00
963.00	6146.00
964.00	6373.00
965.00	6455.00
966.00	6428.00
967.00	6423.00
968.00	6576.00
969.00	6687.00
970.00	6706.00
971.00	6726.00
972.00	6791.00
973.00	6612.00
974.00	6851.00
975.00	6795.00
976.00	6841.00
977.00	6562.00
978.00	6637.00
979.00	6629.00
980.00	6418.00
981.00	6554.00
982.00	6304.00
983.00	6293.00
984.00	6265.00
985.00	6332.00
986.00	6115.00
987.00	6261.00
988.00	6159.00
989.00	6185.00
990.00	6032.00
991.00	5929.00
992.00	6097.00
993.00	6106.00
994.00	6090.00
995.00	6169.00
996.00	6134.00
997.00	6100.00
998.00	6123.00
999.00	6160.00
1000.00	6160.00
1001.00	6182.00
1002.00	6028.00
1003.00	6226.00
1004.00	6199.00
1005.00	6363.00
1006.00	6219.00
1007.00	6306.00
1008.00	6232.00
1009.00	6415.00
1010.00	6320.00
1011.00	6432.00
1012.00	6267.00
1013.00	6420.00
1014.00	6443.00
1015.00	6427.00
1016.00	6597.00
1017.00	6595.00
1018.00	6407.00
1019.00	6400.00
1020.00	6341.00
1021.00	6382.00
1022.00	6291.00
1023.00	6331.00
1024.00	6157.00
1025.00	6262.00
1026.00	6107.00
1027.00	6139.00
1028.00	6183.00
1029.00	6187.00
1030.00	6215.00
1031.00	6287.00
1032.00	6310.00
1033.00	6205.00
1034.00	6425.00
1035.00	6299.00
1036.00	6360.00
1037.00	6184.00
1038.00	6359.00
1039.00	6238.00
1040.00	6310.00
1041.00	6389.00
1042.00	6450.00
1043.00	6405.00
1044.00	6177.00
1045.00	6346.00
1046.00	6323.00
1047.00	6357.00
1048.00	6301.00
1049.00	6435.00
1050.00	6303.00
1051.00	6428.00
1052.00	6427.00
1053.00	6100.00
1054.00	6220.00
1055.00	6417.00
1056.00	6331.00
1057.00	6362.00
1058.00	6300.00
1059.00	6350.00
1060.00	6195.00
1061.00	6448.00
1062.00	6564.00
1063.00	6367.00
1064.00	6407.00
1065.00	6267.00
1066.00	6322.00
1067.00	6467.00
1068.00	6487.00
1069.00	6345.00
1070.00	6371.00
1071.00	6316.00
1072.00	6600.00
1073.00	6493.00
1074.00	6645.00
1075.00	6509.00
1076.00	6526.00
1077.00	6545.00
1078.00	6363.00
1079.00	6458.00
1080.00	6644.00
1081.00	6578.00
1082.00	6477.00
1083.00	6556.00
1084.00	6666.00
1085.00	6563.00
1086.00	6575.00
1087.00	6634.00
1088.00	6489.00
1089.00	6497.00
1090.00	6708.00
1091.00	6685.00
1092.00	6607.00
1093.00	6569.00
1094.00	6602.00
1095.00	6640.00
1096.00	6684.00
1097.00	6628.00
1098.00	6712.00
1099.00	6660.00
1100.00	6687.00
1101.00	6756.00
1102.00	6653.00
1103.00	6602.00
1104.00	6537.00
1105.00	6758.00
1106.00	6649.00
1107.00	6634.00
1108.00	6629.00
1109.00	6699.00
1110.00	6761.00
1111.00	6755.00
1112.00	6842.00
1113.00	6602.00
1114.00	6745.00
1115.00	6677.00
1116.00	6740.00
1117.00	6767.00
1118.00	6614.00
1119.00	6691.00
1120.00	6641.00
1121.00	6636.00
1122.00	6764.00
1123.00	6760.00
1124.00	6834.00
1125.00	6771.00
1126.00	6809.00
1127.00	6771.00
1128.00	6729.00
1129.00	6792.00
1130.00	6655.00
1131.00	6727.00
1132.00	6731.00
1133.00	6760.00
1134.00	6763.00
1135.00	6706.00
1136.00	6677.00
1137.00	6793.00
1138.00	6771.00
1139.00	6715.00
1140.00	6721.00
1141.00	6692.00
1142.00	6821.00
1143.00	6715.00
1144.00	6762.00
1145.00	6788.00
1146.00	6972.00
1147.00	6767.00
1148.00	6703.00
1149.00	6978.00
1150.00	6753.00
1151.00	6729.00
1152.00	6725.00
1153.00	6620.00
1154.00	6759.00
1155.00	6670.00
1156.00	6837.00
1157.00	6664.00
1158.00	6771.00
1159.00	6661.00
1160.00	6748.00
1161.00	6639.00
1162.00	6804.00
1163.00	6654.00
1164.00	6646.00
1165.00	6731.00
1166.00	6437.00
1167.00	6533.00
1168.00	6726.00
1169.00	6551.00
1170.00	6512.00
1171.00	6506.00
1172.00	6455.00
1173.00	6665.00
1174.00	6626.00
1175.00	6636.00
1176.00	6658.00
1177.00	6620.00
1178.00	6691.00
1179.00	6681.00
1180.00	6723.00
1181.00	6680.00
1182.00	6746.00
1183.00	6650.00
1184.00	6617.00
1185.00	6628.00
1186.00	6696.00
1187.00	6713.00
1188.00	6753.00
1189.00	6714.00
1190.00	6580.00
1191.00	6779.00
1192.00	6829.00
1193.00	6828.00
1194.00	6678.00
1195.00	6841.00
1196.00	6909.00
1197.00	6564.00
1198.00	6715.00
1199.00	6866.00
1200.00	6766.00
1201.00	6784.00
1202.00	6917.00
1203.00	6779.00
1204.00	6858.00
1205.00	6768.00
1206.00	6818.00
1207.00	6692.00
1208.00	6812.00
1209.00	6807.00
1210.00	6893.00
1211.00	6975.00
1212.00	6935.00
1213.00	6864.00
1214.00	6998.00
1215.00	6898.00
1216.00	7094.00
1217.00	6979.00
1218.00	6946.00
1219.00	6983.00
1220.00	6873.00
1221.00	7005.00
1222.00	6996.00
1223.00	7025.00
1224.00	7110.00
1225.00	7232.00
1226.00	7132.00
1227.00	6888.00
1228.00	7169.00
1229.00	7266.00
1230.00	7208.00
1231.00	7052.00
1232.00	7094.00
1233.00	7162.00
1234.00	7087.00
1235.00	7292.00
1236.00	7232.00
1237.00	7275.00
1238.00	7006.00
1239.00	7134.00
1240.00	6901.00
1241.00	7005.00
1242.00	7101.00
1243.00	6891.00
1244.00	6834.00
1245.00	6830.00
1246.00	6753.00
1247.00	6813.00
1248.00	6810.00
1249.00	6729.00
1250.00	6581.00
1251.00	6650.00
1252.00	6614.00
1253.00	6760.00
1254.00	6680.00
1255.00	6622.00
1256.00	6694.00
1257.00	6677.00
1258.00	6564.00
1259.00	6574.00
1260.00	6643.00
1261.00	6541.00
1262.00	6608.00
1263.00	6471.00
1264.00	6422.00
1265.00	6496.00
1266.00	6572.00
1267.00	6622.00
1268.00	6561.00
1269.00	6572.00
1270.00	6672.00
1271.00	6728.00
1272.00	6717.00
1273.00	6862.00
1274.00	6765.00
1275.00	6675.00
1276.00	6710.00
1277.00	6721.00
1278.00	7072.00
1279.00	7018.00
1280.00	7158.00
1281.00	7135.00
1282.00	7376.00
1283.00	7430.00
1284.00	7405.00
1285.00	7465.00
1286.00	7557.00
1287.00	7509.00
1288.00	7451.00
1289.00	7657.00
1290.00	7668.00
1291.00	7610.00
